LabVIEW Measurement	
Writer_Version	2
Reader_Version	2
Separator	Tab
Decimal_Separator	,
Multi_Headings	Yes
X_Columns	One
Time_Pref	Absolute
Operator	d.nicolai
Date	2023/11/09
Time	15:58:22,5385127999997216582
***End_of_Header***	
	
Channels	2		
Samples	1000	1000	
Date	2023/11/09	2023/11/09	
Time	15:58:25,7085127999996336332	15:58:25,7085127999996336332	
Y_Unit_Label	Volts	Volts	
X_Dimension	Time	Time	
X0	0,0000000000000000E+0	0,0000000000000000E+0	
Delta_X	0,001000	0,001000	
***End_of_Header***			
X_Value	powebox	triggerbox	Comment
0,000000	0,798645	1,054535
0,001000	0,794220	4,999847
0,002000	0,800171	3,728180
0,003000	0,792542	4,999847
0,004000	0,800781	4,999847
0,005000	0,791168	4,999847
0,006000	0,801849	4,999847
0,007000	0,790710	4,999847
0,008000	0,799408	4,728546
0,009000	0,793152	3,987732
0,010000	0,798035	3,535004
0,011000	0,794373	4,999847
0,012000	0,796051	4,999847
0,013000	0,796509	4,999847
0,014000	0,794220	4,999847
0,015000	0,798035	4,999847
0,016000	0,792389	4,999847
0,017000	0,798950	4,999847
0,018000	0,790253	4,999847
0,019000	0,800018	4,057770
0,020000	0,788879	4,024658
0,021000	0,800629	4,997253
0,022000	0,790405	4,567566
0,023000	0,798645	4,999847
0,024000	0,791779	4,999847
0,025000	0,795746	4,999847
0,026000	0,793610	4,999847
0,027000	0,793915	4,999847
0,028000	0,795441	4,354858
0,029000	0,792236	3,899536
0,030000	0,797272	3,482819
0,031000	0,790405	3,491516
0,032000	0,798645	4,988708
0,033000	0,788879	4,999847
0,034000	0,799866	4,999847
0,035000	0,786133	4,999847
0,036000	0,777130	4,999847
0,037000	0,779419	4,999847
0,038000	0,792084	4,999847
0,039000	0,789642	3,973694
0,040000	0,793457	3,812256
0,041000	0,792999	4,960480
0,042000	0,792389	3,647766
0,043000	0,795593	4,999847
0,044000	0,791016	4,999847
0,045000	0,797119	4,999847
0,046000	0,788727	4,999847
0,047000	0,798035	4,999847
0,048000	0,787506	4,999847
0,049000	0,799713	2,805481
0,050000	0,787659	3,673859
0,051000	0,797729	3,188934
0,052000	0,789795	4,486847
0,053000	0,795441	4,999847
0,054000	0,791473	4,999847
0,055000	0,792847	4,999847
0,056000	0,793304	4,999847
0,057000	0,790863	4,999847
0,058000	0,795441	4,999847
0,059000	0,789337	3,401642
0,060000	0,796967	4,999847
0,061000	0,787659	3,644257
0,062000	0,798340	4,003448
0,063000	0,785828	4,999847
0,064000	0,799255	4,999847
0,065000	0,787354	4,999847
0,066000	0,796051	4,999847
0,067000	0,789337	4,999847
0,068000	0,793915	4,907837
0,069000	0,791626	3,841553
0,070000	0,791626	4,017792
0,071000	0,793304	3,628387
0,072000	0,789337	4,921722
0,073000	0,794830	4,999847
0,074000	0,787964	4,999847
0,075000	0,796661	4,999847
0,076000	0,785828	4,999847
0,077000	0,797577	4,999847
0,078000	0,784607	4,769287
0,079000	0,797424	4,149628
0,080000	0,786896	4,399109
0,081000	0,794678	4,999847
0,082000	0,789337	4,523773
0,083000	0,792542	4,202576
0,084000	0,791016	4,999847
0,085000	0,790100	4,999847
0,086000	0,792999	4,999847
0,087000	0,787811	4,999847
0,088000	0,794220	4,999847
0,089000	0,786285	3,656616
0,090000	0,796204	3,977966
0,091000	0,784912	4,854889
0,092000	0,797119	4,999847
0,093000	0,784760	4,999847
0,094000	0,795593	4,999847
0,095000	0,786896	4,999847
0,096000	0,792389	4,999847
0,097000	0,788574	4,999847
0,098000	0,790558	4,787598
0,099000	0,791016	4,437408
0,100000	0,788879	3,812561
0,101000	0,792694	4,495087
0,102000	0,786438	3,759918
0,103000	0,793915	4,999847
0,104000	0,785065	4,999847
0,105000	0,795593	4,999847
0,106000	0,783386	4,999847
0,107000	0,796051	4,999847
0,108000	0,784454	4,599915
0,109000	0,793610	2,895508
0,110000	0,786896	3,456421
0,111000	0,791626	3,399506
0,112000	0,788422	4,320526
0,113000	0,788422	4,999847
0,114000	0,790710	4,999847
0,115000	0,787048	4,999847
0,116000	0,791779	4,999847
0,117000	0,785522	4,999847
0,118000	0,793304	4,999847
0,119000	0,783386	4,241638
0,120000	0,794220	3,618011
0,121000	0,782013	4,019470
0,122000	0,793762	3,962708
0,123000	0,783539	4,999847
0,124000	0,791016	4,999847
0,125000	0,785980	4,999847
0,126000	0,788727	4,999847
0,127000	0,787811	4,999847
0,128000	0,786896	4,633789
0,129000	0,788727	3,414612
0,130000	0,784454	2,242584
0,131000	0,790863	4,505920
0,132000	0,783539	4,999847
0,133000	0,791779	4,999847
0,134000	0,781860	4,999847
0,135000	0,792694	4,999847
0,136000	0,781555	4,999847
0,137000	0,791626	4,999847
0,138000	0,778198	4,999847
0,139000	0,779114	3,505554
0,140000	0,780487	2,625885
0,141000	0,784302	4,090576
0,142000	0,785370	4,434357
0,143000	0,783997	4,999847
0,144000	0,787506	4,999847
0,145000	0,782623	4,999847
0,146000	0,788422	4,999847
0,147000	0,781250	4,999847
0,148000	0,789337	4,676208
0,149000	0,779877	3,713226
0,150000	0,789948	3,351898
0,151000	0,780334	4,223633
0,152000	0,788116	4,375916
0,153000	0,782013	4,999847
0,154000	0,785675	4,999847
0,155000	0,783386	4,999847
0,156000	0,783691	4,999847
0,157000	0,785217	4,999847
0,158000	0,781708	4,999847
0,159000	0,785828	4,444122
0,160000	0,780792	3,339081
0,161000	0,786591	4,448242
0,162000	0,778656	4,450378
0,163000	0,786591	4,999847
0,164000	0,777740	4,999847
0,165000	0,786438	4,999847
0,166000	0,778961	4,999847
0,167000	0,784454	4,999847
0,168000	0,779877	4,591980
0,169000	0,781708	2,989807
0,170000	0,780945	3,264160
0,171000	0,780334	4,450836
0,172000	0,781708	4,999847
0,173000	0,779114	4,999847
0,174000	0,782776	4,999847
0,175000	0,778503	4,999847
0,176000	0,783386	4,999847
0,177000	0,776672	4,999847
0,178000	0,784149	4,544830
0,179000	0,776367	3,618622
0,180000	0,782623	4,769897
0,181000	0,777893	2,935638
0,182000	0,781097	4,371796
0,183000	0,778351	4,999847
0,184000	0,779877	4,999847
0,185000	0,779114	4,999847
0,186000	0,778046	4,999847
0,187000	0,779572	4,999847
0,188000	0,776825	4,903717
0,189000	0,779877	3,550568
0,190000	0,775604	4,064331
0,191000	0,780640	3,207703
0,192000	0,774841	4,999847
0,193000	0,780487	4,999847
0,194000	0,774841	4,999847
0,195000	0,779114	4,999847
0,196000	0,775757	4,999847
0,197000	0,777740	4,999847
0,198000	0,776672	4,693756
0,199000	0,776825	4,436340
0,200000	0,776825	3,572083
0,201000	0,775299	3,844757
0,202000	0,777588	4,220734
0,203000	0,774384	4,999847
0,204000	0,777588	4,999847
0,205000	0,773468	4,999847
0,206000	0,778046	4,999847
0,207000	0,772858	4,999847
0,208000	0,778046	4,064484
0,209000	0,773468	3,057098
0,210000	0,777283	3,472137
0,211000	0,774231	2,894135
0,212000	0,775452	4,523773
0,213000	0,774841	4,999847
0,214000	0,774994	4,999847
0,215000	0,774994	4,999847
0,216000	0,773926	4,999847
0,217000	0,775604	4,999847
0,218000	0,772705	4,488983
0,219000	0,775604	4,670258
0,220000	0,772400	3,457489
0,221000	0,775757	4,382935
0,222000	0,771790	3,771973
0,223000	0,775909	4,999847
0,224000	0,772552	4,999847
0,225000	0,775146	4,999847
0,226000	0,772705	4,999847
0,227000	0,773773	4,999847
0,228000	0,773468	4,248352
0,229000	0,772858	3,522339
0,230000	0,773315	3,590393
0,231000	0,772247	4,586029
0,232000	0,773773	4,999847
0,233000	0,771332	4,999847
0,234000	0,774078	4,999847
0,235000	0,770569	4,999847
0,236000	0,774384	4,999847
0,237000	0,771484	4,999847
0,238000	0,774231	4,999847
0,239000	0,771942	4,219666
0,240000	0,771942	4,081116
0,241000	0,769196	3,623199
0,242000	0,770721	4,474487
0,243000	0,771942	4,999847
0,244000	0,771637	4,999847
0,245000	0,772705	4,999847
0,246000	0,771179	4,999847
0,247000	0,772247	4,999847
0,248000	0,770569	4,759064
0,249000	0,772705	3,797913
0,250000	0,770111	3,974915
0,251000	0,773010	4,187469
0,252000	0,769958	4,999847
0,253000	0,771942	4,999847
0,254000	0,770111	4,999847
0,255000	0,771484	4,999847
0,256000	0,771332	4,999847
0,257000	0,770874	4,999847
0,258000	0,771179	4,999847
0,259000	0,770569	4,356842
0,260000	0,771179	3,129730
0,261000	0,769806	4,999847
0,262000	0,771332	4,287415
0,263000	0,769806	4,719086
0,264000	0,771637	4,999847
0,265000	0,769501	4,999847
0,266000	0,771637	4,999847
0,267000	0,769958	4,999847
0,268000	0,770721	4,722137
0,269000	0,769958	3,973389
0,270000	0,770874	3,384247
0,271000	0,770416	4,346008
0,272000	0,770264	4,999847
0,273000	0,770416	4,999847
0,274000	0,769348	4,999847
0,275000	0,769958	4,999847
0,276000	0,768890	4,999847
0,277000	0,771179	4,999847
0,278000	0,768585	4,999847
0,279000	0,770874	3,790741
0,280000	0,768890	3,763123
0,281000	0,770721	3,552551
0,282000	0,769348	3,836823
0,283000	0,770111	4,999847
0,284000	0,769348	4,999847
0,285000	0,769806	4,999847
0,286000	0,769501	4,999847
0,287000	0,769501	4,999847
0,288000	0,769958	4,999847
0,289000	0,769196	4,100647
0,290000	0,769653	2,211761
0,291000	0,768738	4,587250
0,292000	0,769806	4,999847
0,293000	0,768280	4,999847
0,294000	0,770416	4,999847
0,295000	0,768585	4,999847
0,296000	0,769806	4,999847
0,297000	0,768585	4,999847
0,298000	0,769501	4,999847
0,299000	0,769196	3,708038
0,300000	0,769196	3,305969
0,301000	0,769196	4,999847
0,302000	0,768433	4,196014
0,303000	0,769043	4,999847
0,304000	0,768585	4,999847
0,305000	0,769196	4,999847
0,306000	0,768280	4,999847
0,307000	0,769348	4,999847
0,308000	0,768127	4,882050
0,309000	0,769958	3,489990
0,310000	0,768280	2,179565
0,311000	0,769043	4,560547
0,312000	0,768280	4,999847
0,313000	0,768738	4,999847
0,314000	0,768738	4,999847
0,315000	0,768890	4,999847
0,316000	0,769196	4,999847
0,317000	0,768890	4,999847
0,318000	0,769501	4,782562
0,319000	0,768280	4,507141
0,320000	0,769348	3,506927
0,321000	0,767975	4,651642
0,322000	0,769196	3,968201
0,323000	0,767670	4,999847
0,324000	0,769043	4,999847
0,325000	0,768280	4,999847
0,326000	0,768890	4,999847
0,327000	0,768433	4,999847
0,328000	0,768585	4,769897
0,329000	0,768738	3,260498
0,330000	0,767975	3,944855
0,331000	0,768433	4,597931
0,332000	0,768738	4,999847
0,333000	0,768738	4,999847
0,334000	0,767975	4,999847
0,335000	0,769043	4,999847
0,336000	0,767822	4,999847
0,337000	0,768890	4,999847
0,338000	0,767670	4,999847
0,339000	0,769043	4,761505
0,340000	0,768433	3,407440
0,341000	0,768890	3,305054
0,342000	0,768280	3,897095
0,343000	0,767517	4,999847
0,344000	0,767975	4,999847
0,345000	0,768127	4,999847
0,346000	0,768280	4,999847
0,347000	0,767975	4,999847
0,348000	0,768280	4,999847
0,349000	0,768127	3,235474
0,350000	0,768585	2,510529
0,351000	0,768127	4,999847
0,352000	0,769196	4,806061
0,353000	0,767975	4,999847
0,354000	0,769043	4,999847
0,355000	0,768585	4,999847
0,356000	0,768890	4,999847
0,357000	0,768280	4,999847
0,358000	0,768890	4,999847
0,359000	0,768738	3,575745
0,360000	0,768890	3,663635
0,361000	0,769348	2,670898
0,362000	0,769348	3,924713
0,363000	0,769501	4,999847
0,364000	0,769348	4,999847
0,365000	0,769348	4,999847
0,366000	0,769196	4,999847
0,367000	0,769501	4,999847
0,368000	0,769501	4,300385
0,369000	0,769501	3,120575
0,370000	0,769653	3,206482
0,371000	0,769501	3,828888
0,372000	0,769043	4,926758
0,373000	0,769043	4,999847
0,374000	0,769043	4,999847
0,375000	0,769043	4,999847
0,376000	0,769196	4,999847
0,377000	0,768890	4,999847
0,378000	0,769653	4,999847
0,379000	0,769501	4,362335
0,380000	0,769196	4,001770
0,381000	0,769196	4,785461
0,382000	0,776215	4,043884
0,383000	0,789642	4,999847
0,384000	0,800018	4,999847
0,385000	0,801849	4,999847
0,386000	0,803528	4,999847
0,387000	0,804443	4,999847
0,388000	0,803375	4,999847
0,389000	0,805054	3,526154
0,390000	0,802155	2,644043
0,391000	0,805511	4,277191
0,392000	0,800629	4,999847
0,393000	0,806274	4,999847
0,394000	0,799408	4,999847
0,395000	0,806427	4,999847
0,396000	0,799866	4,999847
0,397000	0,804291	4,999847
0,398000	0,800476	4,999847
0,399000	0,803375	4,298553
0,400000	0,801697	2,887421
0,401000	0,801086	3,382874
0,402000	0,801849	2,834320
0,403000	0,799866	4,999847
0,404000	0,802917	4,999847
0,405000	0,798645	4,999847
0,406000	0,803833	4,999847
0,407000	0,796967	4,999847
0,408000	0,804443	4,999847
0,409000	0,796204	4,004822
0,410000	0,803986	3,533936
0,411000	0,797119	3,824921
0,412000	0,801849	4,999847
0,413000	0,798187	4,999847
0,414000	0,800171	4,999847
0,415000	0,799103	4,999847
0,416000	0,798340	4,999847
0,417000	0,800781	4,999847
0,418000	0,796661	4,999847
0,419000	0,801392	4,024658
0,420000	0,795288	3,721924
0,421000	0,802307	3,385925
0,422000	0,794067	3,618774
0,423000	0,803375	4,999847
0,424000	0,792999	4,999847
0,425000	0,801544	4,999847
0,426000	0,794983	4,999847
0,427000	0,799713	4,999847
0,428000	0,796509	4,999847
0,429000	0,797882	4,028320
0,430000	0,798187	3,432465
0,431000	0,796051	3,428040
0,432000	0,799255	4,642487
0,433000	0,794525	4,999847
0,434000	0,800476	4,999847
0,435000	0,792847	4,999847
0,436000	0,801392	4,999847
0,437000	0,791168	4,999847
0,438000	0,802307	4,381714
0,439000	0,791779	4,223328
0,440000	0,799561	4,805756
0,441000	0,793762	3,501587
0,442000	0,797424	3,184967
0,443000	0,795288	4,999847
0,444000	0,795441	4,999847
0,445000	0,777588	4,999847
0,446000	0,777435	4,999847
0,447000	0,791321	4,999847
0,448000	0,788879	4,193420
0,449000	0,798035	3,980103
0,450000	0,789948	4,489899
0,451000	0,800323	2,522278
0,452000	0,789490	4,999847
0,453000	0,800476	4,999847
0,454000	0,791321	4,999847
0,455000	0,798187	4,999847
0,456000	0,793457	4,999847
0,457000	0,795746	4,999847
0,458000	0,795135	4,999847
0,459000	0,793762	4,487915
0,460000	0,796356	2,844849
0,461000	0,791321	4,460754
0,462000	0,797424	4,327545
0,463000	0,789642	4,999847
0,464000	0,798798	4,999847
0,465000	0,788727	4,999847
0,466000	0,799713	4,999847
0,467000	0,788574	4,999847
0,468000	0,798035	4,999847
0,469000	0,789642	3,077545
0,470000	0,795898	2,884216
0,471000	0,792084	4,420013
0,472000	0,793610	4,999847
0,473000	0,793915	4,999847
0,474000	0,791473	4,999847
0,475000	0,794983	4,999847
0,476000	0,789185	4,999847
0,477000	0,796814	4,999847
0,478000	0,788269	4,782410
0,479000	0,797577	4,532166
0,480000	0,786896	3,835754
0,481000	0,799103	3,682861
0,482000	0,787659	2,947388
0,483000	0,796509	4,999847
0,484000	0,789490	4,999847
0,485000	0,794373	4,999847
0,486000	0,791779	4,999847
0,487000	0,792084	4,999847
0,488000	0,792847	4,999847
0,489000	0,789795	3,247070
0,490000	0,795288	3,440399
0,491000	0,788422	4,046021
0,492000	0,796051	4,653473
0,493000	0,787659	4,999847
0,494000	0,797882	4,999847
0,495000	0,785522	4,999847
0,496000	0,797729	4,999847
0,497000	0,787354	4,999847
0,498000	0,795593	4,999847
0,499000	0,789948	4,175262
0,500000	0,792847	2,354126
0,501000	0,791473	4,602203
0,502000	0,790710	4,271393
0,503000	0,792999	4,368286
0,504000	0,788727	4,999847
0,505000	0,794830	4,999847
0,506000	0,786743	4,999847
0,507000	0,795898	4,999847
0,508000	0,784760	4,999847
0,509000	0,797119	3,114319
0,510000	0,784912	4,999847
0,511000	0,795746	3,610992
0,512000	0,787201	4,999847
0,513000	0,793915	4,999847
0,514000	0,789490	4,999847
0,515000	0,791626	4,999847
0,516000	0,791473	4,999847
0,517000	0,789642	4,999847
0,518000	0,793304	4,729767
0,519000	0,787506	4,600372
0,520000	0,794678	3,165588
0,521000	0,785828	4,109039
0,522000	0,795746	3,768616
0,523000	0,784149	4,999847
0,524000	0,797119	4,999847
0,525000	0,784912	4,999847
0,526000	0,794067	4,999847
0,527000	0,787506	4,999847
0,528000	0,792236	4,946899
0,529000	0,789490	3,822632
0,530000	0,789948	2,835083
0,531000	0,790710	4,277802
0,532000	0,787354	4,217377
0,533000	0,792694	4,999847
0,534000	0,786133	4,999847
0,535000	0,793762	4,999847
0,536000	0,784302	4,999847
0,537000	0,795288	4,999847
0,538000	0,783234	4,999847
0,539000	0,795441	4,247894
0,540000	0,784912	3,495483
0,541000	0,792847	3,708954
0,542000	0,787201	3,333435
0,543000	0,790863	4,999847
0,544000	0,789185	4,999847
0,545000	0,787811	4,999847
0,546000	0,790710	4,999847
0,547000	0,785828	4,999847
0,548000	0,784149	4,999847
0,549000	0,781403	2,621460
0,550000	0,792389	3,596954
0,551000	0,782318	3,379669
0,552000	0,794067	4,585114
0,553000	0,782166	4,999847
0,554000	0,793304	4,999847
0,555000	0,784607	4,999847
0,556000	0,791168	4,999847
0,557000	0,787048	4,999847
0,558000	0,788574	4,999847
0,559000	0,788422	3,796387
0,560000	0,786743	3,319244
0,561000	0,789948	3,480530
0,562000	0,784912	2,991333
0,563000	0,791168	4,999847
0,564000	0,783234	4,999847
0,565000	0,792847	4,999847
0,566000	0,781708	4,999847
0,567000	0,793762	4,999847
0,568000	0,782166	4,999847
0,569000	0,791626	3,176270
0,570000	0,784302	4,358521
0,571000	0,789032	4,253387
0,572000	0,786133	4,519958
0,573000	0,786438	4,999847
0,574000	0,787048	4,999847
0,575000	0,784454	4,999847
0,576000	0,788574	4,999847
0,577000	0,782776	4,999847
0,578000	0,789795	4,951172
0,579000	0,781708	3,722076
0,580000	0,791016	3,473969
0,581000	0,780334	4,514465
0,582000	0,791168	3,831482
0,583000	0,781555	4,999847
0,584000	0,788574	4,999847
0,585000	0,783691	4,999847
0,586000	0,786285	4,999847
0,587000	0,784607	4,999847
0,588000	0,784149	4,999847
0,589000	0,785370	2,473297
0,590000	0,782318	4,329376
0,591000	0,786438	3,788757
0,592000	0,780945	4,679108
0,593000	0,787964	4,999847
0,594000	0,779266	4,999847
0,595000	0,788574	4,999847
0,596000	0,778656	4,999847
0,597000	0,787201	4,999847
0,598000	0,780640	4,999847
0,599000	0,785065	4,119720
0,600000	0,781097	3,828430
0,601000	0,783234	3,402557
0,602000	0,782623	3,187714
0,603000	0,781708	4,999847
0,604000	0,783539	4,999847
0,605000	0,779877	4,999847
0,606000	0,784149	4,999847
0,607000	0,778351	4,999847
0,608000	0,784454	4,708862
0,609000	0,777435	3,563385
0,610000	0,784607	4,887085
0,611000	0,776978	3,288422
0,612000	0,783081	4,825134
0,613000	0,778351	4,999847
0,614000	0,782166	4,999847
0,615000	0,779572	4,999847
0,616000	0,780029	4,999847
0,617000	0,779572	4,999847
0,618000	0,778046	4,999847
0,619000	0,780640	4,051208
0,620000	0,776825	3,368988
0,621000	0,781403	3,188171
0,622000	0,775452	3,693542
0,623000	0,781708	4,999847
0,624000	0,775146	4,999847
0,625000	0,781860	4,999847
0,626000	0,775604	4,999847
0,627000	0,780182	4,999847
0,628000	0,776825	4,980164
0,629000	0,778656	3,652954
0,630000	0,777588	3,465424
0,631000	0,777283	3,259888
0,632000	0,778198	4,778442
0,633000	0,776367	4,999847
0,634000	0,778351	4,999847
0,635000	0,775299	4,999847
0,636000	0,778656	4,999847
0,637000	0,774689	4,999847
0,638000	0,779572	4,867249
0,639000	0,773621	3,468628
0,640000	0,778503	2,792816
0,641000	0,774384	4,642944
0,642000	0,776825	4,318237
0,643000	0,774994	4,999847
0,644000	0,775604	4,999847
0,645000	0,775452	4,999847
0,646000	0,774841	4,999847
0,647000	0,776672	4,999847
0,648000	0,774078	4,980621
0,649000	0,776367	3,159485
0,650000	0,772247	4,331818
0,651000	0,772095	2,894592
0,652000	0,770569	4,999847
0,653000	0,775909	4,999847
0,654000	0,771942	4,999847
0,655000	0,775604	4,999847
0,656000	0,773163	4,999847
0,657000	0,774689	4,999847
0,658000	0,773468	4,999847
0,659000	0,773621	4,676666
0,660000	0,774384	3,344727
0,661000	0,773010	3,708954
0,662000	0,774994	3,328400
0,663000	0,772705	4,999847
0,664000	0,774689	4,999847
0,665000	0,772247	4,999847
0,666000	0,775146	4,999847
0,667000	0,771179	4,999847
0,668000	0,774994	4,999847
0,669000	0,771637	3,598022
0,670000	0,774078	4,782562
0,671000	0,772247	3,249969
0,672000	0,773315	4,890289
0,673000	0,772858	4,999847
0,674000	0,772858	4,999847
0,675000	0,772858	4,999847
0,676000	0,771942	4,999847
0,677000	0,772858	4,999847
0,678000	0,771332	4,999847
0,679000	0,773468	4,722595
0,680000	0,771179	2,781219
0,681000	0,773468	4,589233
0,682000	0,770416	2,835083
0,683000	0,773468	4,999847
0,684000	0,771027	4,999847
0,685000	0,772400	4,999847
0,686000	0,770874	4,999847
0,687000	0,771790	4,999847
0,688000	0,771484	4,920349
0,689000	0,771484	3,898163
0,690000	0,771942	3,371429
0,691000	0,770416	3,881683
0,692000	0,772247	4,999847
0,693000	0,769958	4,999847
