LabVIEW Measurement	
Writer_Version	2
Reader_Version	2
Separator	Tab
Decimal_Separator	,
Multi_Headings	Yes
X_Columns	One
Time_Pref	Absolute
Operator	d.nicolai
Date	2023/11/09
Time	15:52:34,4435127999997708487
***End_of_Header***	
	
Channels	2		
Samples	1000	1000	
Date	2023/11/09	2023/11/09	
Time	15:52:40,7685124999996025657	15:52:40,7685124999996025657	
Y_Unit_Label	Volts	Volts	
X_Dimension	Time	Time	
X0	0,0000000000000000E+0	0,0000000000000000E+0	
Delta_X	0,001000	0,001000	
***End_of_Header***			
X_Value	powebox	triggerbox	Comment
0,000000	1,562195	0,958405
0,001000	1,707458	4,010620
0,002000	1,536102	4,999847
0,003000	1,746216	4,999847
0,004000	1,513062	4,999847
0,005000	1,781616	4,999847
0,006000	1,512299	4,999847
0,007000	1,746826	4,999847
0,008000	1,573029	4,622498
0,009000	1,703033	4,035950
0,010000	1,630249	4,999847
0,011000	1,665802	2,053375
0,012000	1,682129	4,039917
0,013000	1,632080	4,707947
0,014000	1,727905	4,999847
0,015000	1,603241	4,999847
0,016000	1,768951	4,999847
0,017000	1,576691	4,999847
0,018000	1,806488	4,458618
0,019000	1,554871	3,858032
0,020000	1,826935	2,596893
0,021000	1,580048	4,386139
0,022000	1,781158	4,999847
0,023000	1,640167	4,999847
0,024000	1,739044	4,999847
0,025000	1,695251	4,999847
0,026000	1,702423	4,999847
0,027000	1,744690	4,999847
0,028000	1,670380	4,999847
0,029000	1,789856	3,769836
0,030000	1,642456	4,999847
0,031000	1,830444	3,067322
0,032000	1,620178	4,020386
0,033000	1,868591	4,441986
0,034000	1,598663	4,999847
0,035000	1,865540	4,999847
0,036000	1,650238	4,999847
0,037000	1,820831	4,999847
0,038000	1,710052	4,071808
0,039000	1,779785	3,730927
0,040000	1,761780	4,873199
0,041000	1,744537	3,848114
0,042000	1,809387	4,999847
0,043000	1,714020	4,999847
0,044000	1,852875	4,999847
0,045000	1,688232	4,999847
0,046000	1,893921	4,999847
0,047000	1,665955	4,999847
0,048000	1,934052	4,842987
0,049000	1,659851	4,637299
0,050000	1,907349	2,696381
0,051000	1,721649	3,414917
0,052000	1,865540	4,030914
0,053000	1,778412	4,999847
0,054000	1,829071	4,999847
0,055000	1,832428	4,999847
0,056000	1,796570	4,999847
0,057000	1,879120	4,999847
0,058000	1,767883	4,999847
0,059000	1,924591	2,879028
0,060000	1,742249	0,747833
0,061000	1,968231	4,620056
0,062000	1,720886	4,915314
0,063000	1,998444	4,999847
0,064000	1,739197	4,999847
0,065000	1,960754	4,999847
0,066000	1,800690	4,999847
0,067000	1,922913	4,999847
0,068000	1,855469	4,999847
0,069000	1,888733	4,526520
0,070000	1,905212	4,049835
0,071000	1,854706	4,111938
0,072000	1,954193	4,538269
0,073000	1,827545	4,999847
0,074000	2,003326	4,999847
0,075000	1,802216	4,999847
0,076000	2,048798	4,999847
0,077000	1,779785	4,999847
0,078000	2,056274	3,866577
0,079000	1,823120	3,704224
0,080000	2,018890	3,738251
0,081000	1,882019	4,166107
0,082000	1,984100	4,999847
0,083000	1,937714	4,999847
0,084000	1,952515	4,999847
0,085000	1,810303	4,999847
0,086000	1,811218	4,999847
0,087000	1,811371	4,999847
0,088000	2,042847	4,881744
0,089000	1,886749	4,015350
0,090000	2,090302	3,496399
0,091000	1,861572	3,883667
0,092000	2,135620	4,324188
0,093000	1,831665	4,999847
0,094000	2,008972	4,999847
0,095000	1,790619	4,999847
0,096000	1,966858	4,999847
0,097000	1,914062	4,999847
0,098000	2,003632	4,999847
0,099000	2,011566	3,666840
0,100000	1,996765	1,844330
0,101000	2,079926	4,140778
0,102000	1,975403	4,999847
0,103000	2,134399	4,999847
0,104000	1,950836	4,999847
0,105000	2,178192	4,999847
0,106000	1,925964	4,999847
0,107000	2,193909	4,999847
0,108000	1,945190	4,999847
0,109000	2,148743	4,395599
0,110000	2,003937	4,922333
0,111000	2,109222	3,217316
0,112000	2,060394	3,591003
0,113000	2,073822	4,999847
0,114000	2,113647	4,999847
0,115000	2,041931	4,999847
0,116000	2,161713	4,999847
0,117000	2,012482	4,999847
0,118000	2,201080	4,292603
0,119000	1,985779	2,407684
0,120000	2,224579	4,870911
0,121000	1,960297	3,788910
0,122000	2,200165	4,999847
0,123000	2,007599	4,999847
0,124000	2,155457	4,999847
0,125000	2,067261	4,999847
0,126000	2,118073	4,999847
0,127000	2,123566	4,999847
0,128000	2,086334	4,999847
0,129000	2,173767	3,839264
0,130000	2,057800	4,088593
0,131000	1,873627	3,877869
0,132000	1,769409	3,994446
0,133000	1,724243	4,999847
0,134000	1,704865	4,999847
0,135000	1,696930	4,999847
0,136000	1,692963	4,999847
0,137000	1,691589	4,947510
0,138000	1,690826	4,999847
0,139000	1,690521	3,593903
0,140000	1,690521	3,132477
0,141000	1,690216	4,281311
0,142000	1,690369	4,999847
0,143000	1,690063	4,999847
0,144000	1,689606	4,999847
0,145000	1,690063	4,999847
0,146000	1,689606	4,999847
0,147000	1,690063	4,999847
0,148000	1,689606	4,999847
0,149000	1,689301	3,417053
0,150000	1,689301	3,786774
0,151000	1,689301	2,787933
0,152000	1,689453	4,251709
0,153000	1,689453	4,999847
0,154000	1,689301	4,999847
0,155000	1,689453	4,999847
0,156000	1,689453	4,999847
0,157000	1,347809	4,999847
0,158000	1,132812	4,815979
0,159000	1,083832	2,820435
0,160000	1,016083	2,446442
0,161000	1,042175	4,999847
0,162000	0,999756	4,999847
0,163000	1,029968	4,999847
0,164000	1,007080	4,999847
0,165000	1,023407	4,999847
0,166000	1,016388	4,999847
0,167000	1,019135	4,999847
0,168000	1,027222	4,999847
0,169000	1,015167	3,970795
0,170000	1,036530	4,553986
0,171000	1,011047	3,747711
0,172000	1,046753	3,769684
0,173000	1,007233	4,999847
0,174000	1,056671	4,999847
0,175000	1,004181	4,999847
0,176000	1,060181	4,999847
0,177000	1,014709	4,999847
0,178000	1,053162	4,999847
0,179000	1,028748	3,292847
0,180000	1,045837	4,229126
0,181000	1,042175	4,028015
0,182000	1,039124	4,351807
0,183000	1,054840	4,999847
0,184000	1,032562	4,999847
0,185000	1,066895	4,999847
0,186000	1,026764	4,999847
0,187000	1,078949	4,999847
0,188000	1,021271	4,842377
0,189000	1,090088	3,937073
0,190000	1,019745	4,691925
0,191000	1,085815	3,264923
0,192000	1,036224	4,517059
0,193000	1,075745	4,999847
0,194000	1,053162	4,999847
0,195000	1,066132	4,999847
0,196000	1,000671	4,999847
0,197000	1,018372	4,999847
0,198000	1,067963	4,897766
0,199000	1,042938	3,263702
0,200000	1,096039	3,097382
0,201000	1,040955	4,970245
0,202000	1,112061	4,999847
0,203000	1,034851	4,999847
0,204000	1,124725	4,999847
0,205000	1,040955	4,999847
0,206000	1,112366	4,999847
0,207000	1,060944	4,999847
0,208000	1,147156	4,999847
0,209000	1,183319	4,029541
0,210000	1,197815	4,275208
0,211000	1,203766	2,616272
0,212000	1,206818	3,240662
0,213000	1,198883	4,999847
0,214000	1,083832	4,999847
0,215000	1,124878	4,999847
0,216000	1,080475	4,999847
0,217000	1,101532	4,999847
0,218000	1,096191	4,301758
0,219000	1,087646	3,102570
0,220000	1,113434	4,174500
0,221000	1,076355	3,040009
0,222000	1,130524	4,999847
0,223000	1,065826	4,999847
0,224000	1,147308	4,999847
0,225000	1,056366	4,999847
0,226000	1,162872	4,999847
0,227000	1,055450	4,999847
0,228000	1,152344	4,999847
0,229000	1,080170	3,856354
0,230000	1,135254	4,024200
0,231000	1,103668	2,936401
0,232000	1,119843	3,693542
0,233000	1,125946	4,999847
0,234000	1,105042	4,999847
0,235000	1,146393	4,999847
0,236000	1,092224	4,999847
0,237000	1,165466	4,999847
0,238000	1,080475	4,735870
0,239000	1,183929	3,786163
0,240000	1,070404	3,120575
0,241000	1,196899	3,488464
0,242000	1,080170	4,461823
0,243000	1,176300	4,999847
0,244000	1,108551	4,999847
0,245000	1,156769	4,999847
0,246000	1,134338	4,999847
0,247000	1,138611	4,999847
0,248000	1,158447	4,767609
0,249000	1,122742	3,979797
0,250000	1,181183	2,686157
0,251000	1,107941	4,482574
0,252000	1,202240	4,455414
0,253000	1,094818	4,999847
0,254000	1,222687	4,999847
0,255000	1,082916	4,999847
0,256000	1,223907	4,999847
0,257000	1,108246	4,999847
0,258000	1,200256	4,493256
0,259000	1,139374	3,317261
0,260000	1,178436	3,696747
0,261000	1,167755	4,606781
0,262000	1,158295	4,999847
0,263000	1,194458	4,999847
0,264000	1,140594	4,999847
0,265000	1,219177	4,999847
0,266000	1,123810	4,999847
0,267000	1,241760	4,999847
0,268000	1,109161	4,999847
0,269000	1,262665	4,117889
0,270000	1,103821	2,628784
0,271000	1,248627	4,260406
0,272000	1,138763	4,000854
0,273000	1,221924	4,638367
0,274000	1,172333	4,999847
0,275000	1,197968	4,999847
0,276000	1,202545	4,999847
0,277000	1,176300	4,999847
0,278000	1,230774	3,689423
0,279000	1,156769	3,934631
0,280000	1,257629	2,175293
0,281000	1,139069	4,777374
0,282000	1,281738	4,999847
0,283000	1,123199	4,999847
0,284000	1,301117	4,999847
0,285000	1,133881	4,999847
0,286000	1,272278	4,999847
0,287000	1,172180	4,999847
0,288000	1,243439	4,939423
0,289000	1,207733	4,611206
0,290000	1,217346	3,987885
0,291000	1,240540	4,288940
0,292000	1,193848	4,338684
0,293000	1,270599	4,999847
0,294000	1,172943	4,999847
0,295000	1,298370	4,999847
0,296000	1,153870	4,999847
0,297000	1,323853	4,999847
0,298000	1,095123	4,806671
0,299000	1,256561	3,593903
0,300000	1,095581	3,782196
0,301000	1,204987	4,327850
0,302000	1,125336	4,999847
0,303000	1,212921	4,999847
0,304000	1,224518	4,999847
0,305000	1,227570	4,999847
0,306000	1,275940	4,999847
0,307000	1,210022	4,999847
0,308000	1,310730	4,785767
0,309000	1,189423	4,084778
0,310000	1,340790	2,126465
0,311000	1,169891	4,668121
0,312000	1,367035	3,785553
0,313000	1,159515	4,999847
0,314000	1,351166	4,999847
0,315000	1,203918	4,999847
0,316000	1,315460	4,999847
0,317000	1,246490	4,999847
0,318000	1,283417	4,999847
0,319000	1,285553	2,841492
0,320000	1,254730	2,742004
0,321000	1,321259	4,999847
0,322000	1,229095	4,999847
0,323000	1,354065	4,999847
0,324000	1,206512	4,999847
0,325000	1,383514	4,999847
0,326000	1,185760	4,999847
0,327000	1,408539	4,999847
0,328000	1,195068	4,999847
0,329000	1,373444	4,905243
0,330000	1,243134	2,164307
0,331000	1,336365	4,510803
0,332000	1,286926	3,842621
0,333000	1,303406	4,925385
0,334000	1,327667	4,999847
0,335000	1,274109	4,999847
0,336000	1,364136	4,999847
0,337000	1,246948	4,999847
0,338000	1,397400	4,733276
0,339000	1,224365	2,674255
0,340000	1,428528	2,063599
0,341000	1,204071	4,026184
0,342000	1,436615	4,999847
0,343000	1,236115	4,999847
0,344000	1,395721	4,999847
0,345000	1,286163	4,999847
0,346000	1,357422	4,999847
0,347000	1,331329	4,999847
0,348000	1,324768	4,945068
0,349000	1,372833	3,716431
0,350000	1,295013	1,149902
0,351000	1,409912	4,003296
0,352000	1,268921	2,988434
0,353000	1,444855	4,999847
0,354000	1,245575	4,999847
0,355000	1,476135	4,999847
0,356000	1,230011	4,999847
0,357000	1,460876	4,999847
0,358000	1,282196	4,651947
0,359000	1,419220	3,471527
0,360000	1,332703	4,224396
0,361000	1,380920	3,601837
0,362000	1,379089	4,154968
0,363000	1,348114	4,999847
0,364000	1,420593	4,999847
0,365000	1,318512	4,999847
0,366000	1,458893	4,999847
0,367000	1,292725	4,999847
0,368000	1,493988	4,999847
0,369000	1,269836	4,058533
0,370000	1,525116	2,635651
0,371000	1,276703	4,999847
0,372000	1,486511	3,748322
0,373000	1,332550	4,999847
0,374000	1,443939	4,999847
0,375000	1,383972	4,999847
0,376000	1,407013	4,999847
0,377000	1,429901	4,999847
0,378000	1,374817	4,999847
0,379000	1,472473	3,687439
0,380000	1,345673	1,642456
0,381000	1,510620	4,949493
0,382000	1,320496	4,728241
0,383000	1,545868	4,999847
0,384000	1,298676	4,999847
0,385000	1,558685	4,999847
0,386000	1,330414	4,999847
0,387000	1,513214	4,999847
0,388000	1,387024	4,999847
0,389000	1,472321	3,849030
0,390000	1,437988	4,999847
0,391000	1,436005	3,247528
0,392000	1,484833	2,731323
0,393000	1,404572	4,999847
0,394000	1,526947	4,999847
0,395000	1,376495	4,999847
0,396000	1,565704	4,999847
0,397000	1,352234	4,999847
0,398000	1,599731	4,991608
0,399000	1,334381	3,195953
0,400000	1,587372	4,283905
0,401000	1,321564	4,461823
0,402000	1,467590	4,999847
0,403000	1,366882	4,999847
0,404000	1,426697	4,999847
0,405000	1,421204	4,999847
0,406000	1,419373	4,999847
0,407000	1,521759	4,999847
0,408000	1,429138	4,999847
0,409000	1,580200	3,309937
0,410000	1,409302	4,994659
0,411000	1,620178	3,162842
0,412000	1,387634	3,643494
0,413000	1,656036	4,999847
0,414000	1,391144	4,999847
0,415000	1,618652	4,999847
0,416000	1,451263	4,999847
0,417000	1,574554	4,999847
0,418000	1,506348	4,830780
0,419000	1,536560	3,308411
0,420000	1,555939	3,170166
0,421000	1,503296	4,201508
0,422000	1,601410	4,733734
0,423000	1,474304	4,999847
0,424000	1,642303	4,999847
0,425000	1,448822	4,999847
0,426000	1,678925	4,999847
0,427000	1,426697	4,999847
0,428000	1,696625	4,999847
0,429000	1,455383	4,149017
0,430000	1,650543	2,774353
0,431000	1,514435	4,861450
0,432000	1,608276	4,046478
0,433000	1,568604	4,999847
0,434000	1,571808	4,999847
0,435000	1,617279	4,999847
0,436000	1,531219	4,999847
0,437000	1,657562	4,999847
0,438000	1,510162	4,999847
0,439000	1,700287	2,855835
0,440000	1,487122	3,414459
0,441000	1,736298	2,637177
0,442000	1,466675	4,999847
0,443000	1,729126	4,999847
0,444000	1,521149	4,999847
0,445000	1,683807	4,999847
0,446000	1,579590	4,999847
0,447000	1,643829	4,999847
0,448000	1,631775	4,999847
0,449000	1,608582	4,329529
0,450000	1,679230	3,631592
0,451000	1,577759	3,430176
0,452000	1,721954	3,195343
0,453000	1,551208	4,999847
0,454000	1,761017	4,999847
0,455000	1,528473	4,999847
0,456000	1,796417	4,999847
0,457000	1,517334	4,999847
0,458000	1,758881	4,999847
0,459000	1,585999	2,964478
0,460000	1,717682	4,403839
0,461000	1,643829	4,693298
0,462000	1,679993	4,645538
0,463000	1,695404	4,999847
0,464000	1,646576	4,999847
0,465000	1,741486	4,999847
0,466000	1,617279	4,999847
0,467000	1,782990	4,999847
0,468000	1,591949	4,999847
0,469000	1,820984	4,227142
0,470000	1,569672	3,810272
0,471000	1,842041	4,559021
0,472000	1,592865	3,893890
0,473000	1,796722	4,999847
0,474000	1,654510	4,999847
0,475000	1,754150	4,999847
0,476000	1,708984	4,999847
0,477000	1,717987	4,999847
0,478000	1,758728	4,999847
0,479000	1,686096	2,880402
0,480000	1,804047	4,286804
0,481000	1,658783	2,909698
0,482000	1,844482	4,999847
0,483000	1,634674	4,999847
0,484000	1,882629	4,999847
0,485000	1,613770	4,999847
0,486000	1,881256	4,999847
0,487000	1,663361	4,999847
0,488000	1,837006	4,829407
0,489000	1,722870	4,358521
0,490000	1,797333	3,661957
0,491000	1,776276	4,437866
0,492000	1,762543	3,785858
0,493000	1,824493	4,999847
0,494000	1,732483	4,999847
0,495000	1,868744	4,999847
0,496000	1,705933	4,999847
0,497000	1,910400	4,999847
0,498000	1,683197	4,311066
0,499000	1,951447	3,613892
0,500000	1,676483	3,354492
0,501000	1,927032	3,843536
0,502000	1,737518	4,334412
0,503000	1,817627	4,999847
0,504000	1,712036	4,999847
0,505000	1,794434	4,999847
0,506000	1,823578	4,999847
0,507000	1,800995	4,999847
0,508000	1,887512	4,402313
0,509000	1,781921	3,961334
0,510000	1,938171	3,619843
0,511000	1,759186	3,554687
0,512000	1,983795	3,951874
0,513000	1,737671	4,999847
0,514000	2,017212	4,999847
0,515000	1,755371	4,999847
0,516000	1,979523	4,999847
0,517000	1,815491	4,999847
0,518000	1,942444	4,479218
0,519000	1,871033	3,464355
0,520000	1,908875	3,717346
0,521000	1,923218	4,525604
0,522000	1,877747	4,999847
0,523000	1,973572	4,999847
0,524000	1,849060	4,999847
0,525000	2,021637	4,999847
0,526000	1,823883	4,999847
0,527000	2,068939	4,999847
0,528000	1,802063	4,999847
0,529000	2,079773	4,030151
0,530000	1,844330	3,269348
0,531000	2,042389	3,661041
0,532000	1,902924	4,247894
0,533000	2,008362	4,999847
0,534000	1,960602	4,999847
0,535000	1,977844	4,999847
0,536000	2,015533	4,999847
0,537000	1,949158	4,999847
0,538000	2,068176	4,286041
0,539000	1,922760	3,484497
0,540000	2,117920	4,173584
0,541000	1,898956	4,104462
0,542000	2,162628	4,567719
0,543000	1,884460	4,999847
0,544000	2,143250	4,999847
0,545000	1,942902	4,999847
0,546000	2,104187	4,999847
0,547000	2,001801	4,999847
0,548000	2,068634	4,731140
0,549000	2,057648	3,691559
0,550000	2,036133	2,375946
0,551000	2,109222	4,652252
0,552000	2,005310	3,269043
0,553000	2,156830	4,999847
0,554000	1,977234	4,999847
0,555000	2,196503	4,999847
0,556000	1,951294	4,999847
0,557000	2,214813	4,999847
0,558000	1,958771	4,425049
0,559000	2,166748	3,453979
0,560000	2,017517	3,975220
0,561000	2,126312	3,405914
0,562000	2,074738	4,999847
0,563000	2,091217	4,999847
0,564000	2,128143	4,999847
0,565000	2,059326	4,999847
0,566000	2,176361	4,999847
0,567000	2,030640	4,999847
0,568000	2,212830	4,999847
0,569000	2,004547	4,999847
0,570000	2,232666	4,429169
0,571000	1,980896	3,382874
0,572000	2,214203	4,115295
0,573000	2,016602	4,976349
0,574000	2,167511	4,999847
0,575000	1,941223	4,999847
0,576000	1,802979	4,999847
0,577000	1,738739	4,999847
0,578000	1,711731	4,999847
0,579000	1,699982	3,763733
0,580000	1,694794	2,239075
0,581000	1,692810	3,292542
0,582000	1,691589	4,999847
0,583000	1,690979	4,999847
0,584000	1,691284	4,999847
0,585000	1,690979	4,999847
0,586000	1,690521	4,999847
0,587000	1,690979	4,999847
0,588000	1,690521	4,999847
0,589000	1,476135	4,822998
0,590000	1,208344	3,233490
0,591000	1,094055	4,094238
0,592000	1,041260	4,091492
0,593000	1,033173	4,999847
0,594000	1,007538	4,999847
0,595000	1,028900	4,999847
0,596000	1,000519	4,999847
0,597000	1,036224	4,999847
0,598000	0,997772	4,999847
0,599000	1,044159	4,278412
0,600000	1,000061	4,229279
0,601000	1,039734	3,670197
0,602000	1,011810	4,940186
0,603000	1,033630	4,999847
0,604000	1,023254	4,999847
0,605000	1,004181	4,999847
0,606000	0,966339	4,999847
0,607000	0,989075	4,999847
0,608000	1,030579	4,999847
0,609000	1,012573	4,326477
0,610000	1,054535	2,786560
0,611000	1,013336	4,822998
0,612000	1,067352	3,808899
0,613000	1,010895	4,706726
0,614000	1,073608	4,999847
0,615000	1,019287	4,999847
0,616000	1,064453	4,999847
0,617000	1,034088	4,999847
0,618000	1,056213	4,999847
0,619000	1,048737	3,555450
0,620000	1,048431	2,771149
0,621000	1,062622	4,406891
0,622000	1,041260	4,999847
0,623000	1,075592	4,999847
0,624000	1,034393	4,999847
0,625000	1,088562	4,999847
0,626000	1,029053	4,999847
0,627000	1,101227	4,999847
0,628000	1,024170	4,999847
0,629000	1,100006	4,115295
0,630000	1,041718	2,473755
0,631000	1,088562	4,473572
0,632000	1,059265	3,231049
0,633000	1,077423	4,999847
0,634000	1,076965	4,999847
0,635000	1,068420	4,999847
0,636000	1,093597	4,999847
0,637000	1,058807	4,999847
0,638000	1,109161	4,999847
0,639000	1,050568	3,735352
0,640000	1,123810	3,178253
0,641000	1,043396	3,127594
0,642000	1,138458	4,706879
0,643000	1,044922	4,999847
0,644000	1,125793	4,999847
0,645000	1,065521	4,999847
0,646000	1,110382	4,999847
0,647000	1,086426	4,999847
0,648000	1,097260	4,999847
0,649000	1,105804	4,391327
0,650000	1,085052	2,231293
0,651000	1,124420	4,695892
0,652000	1,074982	3,924713
0,653000	1,142120	4,999847
0,654000	1,064148	4,999847
0,655000	1,158447	4,999847
0,656000	1,054993	4,999847
0,657000	1,167603	4,999847
0,658000	1,067200	4,999847
0,659000	1,149597	2,835999
0,660000	1,092682	3,343201
0,661000	1,132202	4,138031
0,662000	1,115875	4,999847
0,663000	1,117706	4,999847
0,664000	1,139679	4,999847
0,665000	1,104279	4,999847
0,666000	1,160126	4,999847
0,667000	1,090851	4,999847
0,668000	1,179047	4,999847
0,669000	1,079559	3,779907
0,670000	1,197205	3,287811
0,671000	1,069489	3,884735
0,672000	1,195068	3,477631
0,673000	1,095428	4,999847
0,674000	1,173401	4,999847
0,675000	1,123047	4,999847
0,676000	1,154480	4,999847
0,677000	1,149750	4,999847
0,678000	1,136475	4,999847
0,679000	1,173859	2,904968
0,680000	1,121063	3,466034
0,681000	1,195221	3,782959
0,682000	1,106415	4,980164
0,683000	1,217499	4,999847
0,684000	1,093750	4,999847
0,685000	1,237640	4,999847
0,686000	1,092834	4,999847
0,687000	1,221008	4,999847
0,688000	1,125336	4,999847
0,689000	1,195679	3,623047
0,690000	1,154175	3,944244
0,691000	1,172943	3,716125
0,692000	1,181793	3,594666
0,693000	1,153107	4,999847
