LabVIEW Measurement	
Writer_Version	2
Reader_Version	2
Separator	Tab
Decimal_Separator	,
Multi_Headings	Yes
X_Columns	One
Time_Pref	Absolute
Operator	d.nicolai
Date	2023/11/09
Time	16:04:05,6565121999996605588
***End_of_Header***	
	
Channels	2		
Samples	1000	1000	
Date	2023/11/09	2023/11/09	
Time	16:04:09,9415129999995129871	16:04:09,9415129999995129871	
Y_Unit_Label	Volts	Volts	
X_Dimension	Time	Time	
X0	0,0000000000000000E+0	0,0000000000000000E+0	
Delta_X	0,001000	0,001000	
***End_of_Header***			
X_Value	powebox	triggerbox	Comment
0,000000	0,616302	0,883942
0,001000	0,616455	4,583588
0,002000	0,616150	4,541626
0,003000	0,615997	4,999847
0,004000	0,616302	4,999847
0,005000	0,616302	4,999847
0,006000	0,617065	4,999847
0,007000	0,618744	4,999847
0,008000	0,614166	4,999847
0,009000	0,590210	4,525909
0,010000	0,583191	3,661499
0,011000	0,580292	3,164673
0,012000	0,579987	3,708649
0,013000	0,579224	4,999847
0,014000	0,580292	4,999847
0,015000	0,580292	4,999847
0,016000	0,580444	4,999847
0,017000	0,579681	4,999847
0,018000	0,570221	4,075012
0,019000	0,570068	3,276825
0,020000	0,551758	4,655151
0,021000	0,570984	4,346771
0,022000	0,580444	4,999847
0,023000	0,547791	4,999847
0,024000	0,569763	4,999847
0,025000	0,579987	4,999847
0,026000	0,582581	4,999847
0,027000	0,582428	4,999847
0,028000	0,581512	4,999847
0,029000	0,579071	4,610443
0,030000	0,577240	3,972778
0,031000	0,579071	4,999847
0,032000	0,552521	4,287262
0,033000	0,570068	4,886627
0,034000	0,575409	4,999847
0,035000	0,578003	4,999847
0,036000	0,551605	4,999847
0,037000	0,554962	4,834900
0,038000	0,569458	4,559784
0,039000	0,572968	3,862610
0,040000	0,576477	4,999847
0,041000	0,579224	4,536896
0,042000	0,580597	4,880829
0,043000	0,575867	4,999847
0,044000	0,536346	4,999847
0,045000	0,544281	4,999847
0,046000	0,561829	4,999847
0,047000	0,569000	4,999847
0,048000	0,572510	4,999847
0,049000	0,570221	3,322144
0,050000	0,577545	4,106445
0,051000	0,577240	3,025970
0,052000	0,579834	3,135834
0,053000	0,573883	4,987183
0,054000	0,576324	4,999847
0,055000	0,575409	4,999847
0,056000	0,573883	4,999847
0,057000	0,570679	4,999847
0,058000	0,571136	4,999847
0,059000	0,567932	3,607330
0,060000	0,563660	3,473358
0,061000	0,560913	4,553528
0,062000	0,562897	4,234619
0,063000	0,559540	4,999847
0,064000	0,557709	4,999847
0,065000	0,557404	4,999847
0,066000	0,553589	4,999847
0,067000	0,557709	4,999847
0,068000	0,532837	4,999847
0,069000	0,513611	4,387970
0,070000	0,504608	3,395996
0,071000	0,488739	4,189148
0,072000	0,527954	3,458862
0,073000	0,545654	4,561615
0,074000	0,552216	4,999847
0,075000	0,556030	4,999847
0,076000	0,553284	4,999847
0,077000	0,554657	4,999847
0,078000	0,551605	4,999847
0,079000	0,553894	2,843475
0,080000	0,558319	1,504822
0,081000	0,559845	4,999847
0,082000	0,557861	4,557495
0,083000	0,562134	4,999847
0,084000	0,556793	4,999847
0,085000	0,561676	4,999847
0,086000	0,567017	4,999847
0,087000	0,570068	4,999847
0,088000	0,569611	4,999847
0,089000	0,572815	4,350433
0,090000	0,574493	3,031616
0,091000	0,560913	4,327087
0,092000	0,558014	3,872833
0,093000	0,565186	4,999847
0,094000	0,565186	4,999847
0,095000	0,567627	4,999847
0,096000	0,561523	4,999847
0,097000	0,552673	4,999847
0,098000	0,564728	4,999847
0,099000	0,570221	3,099976
0,100000	0,574646	3,654327
0,101000	0,565796	4,057465
0,102000	0,540619	4,999847
0,103000	0,529175	4,999847
0,104000	0,526733	4,999847
0,105000	0,522156	4,999847
0,106000	0,525818	4,999847
0,107000	0,522156	4,999847
0,108000	0,529022	4,489136
0,109000	0,523376	4,279480
0,110000	0,530548	2,957306
0,111000	0,528259	4,999847
0,112000	0,532990	3,988800
0,113000	0,532379	4,999847
0,114000	0,542297	4,999847
0,115000	0,543365	4,999847
0,116000	0,564728	4,999847
0,117000	0,586090	4,999847
0,118000	0,594940	4,919281
0,119000	0,601044	3,364716
0,120000	0,599976	3,155060
0,121000	0,602112	4,999847
0,122000	0,592041	4,911652
0,123000	0,598450	4,999847
0,124000	0,594788	4,999847
0,125000	0,599976	4,999847
0,126000	0,595856	4,999847
0,127000	0,602112	4,999847
0,128000	0,601349	4,999847
0,129000	0,601501	4,129486
0,130000	0,603790	4,156189
0,131000	0,605469	2,820892
0,132000	0,610352	4,840698
0,133000	0,606537	4,999847
0,134000	0,612030	4,999847
0,135000	0,594330	4,999847
0,136000	0,607300	4,999847
0,137000	0,601654	4,999847
0,138000	0,610809	4,232330
0,139000	0,604248	3,471985
0,140000	0,614014	3,617249
0,141000	0,606384	3,316803
0,142000	0,605164	4,999847
0,143000	0,599823	4,999847
0,144000	0,596161	4,999847
0,145000	0,597076	4,999847
0,146000	0,594025	4,999847
0,147000	0,599823	4,999847
0,148000	0,596771	4,917297
0,149000	0,600739	3,926086
0,150000	0,596008	4,056244
0,151000	0,606384	3,461304
0,152000	0,594940	4,215698
0,153000	0,606079	4,999847
0,154000	0,600891	4,999847
0,155000	0,611877	4,999847
0,156000	0,606384	4,999847
0,157000	0,609131	4,999847
0,158000	0,608368	4,727936
0,159000	0,607147	3,551483
0,160000	0,609436	2,747803
0,161000	0,602264	3,873749
0,162000	0,609741	4,999847
0,163000	0,605316	4,999847
0,164000	0,618134	4,999847
0,165000	0,605011	4,999847
0,166000	0,619507	4,999847
0,167000	0,604095	4,999847
0,168000	0,618439	4,221039
0,169000	0,608521	3,836365
0,170000	0,615387	4,243011
0,171000	0,610352	2,855225
0,172000	0,615082	4,688568
0,173000	0,591278	4,999847
0,174000	0,581970	4,999847
0,175000	0,604095	4,999847
0,176000	0,600128	4,999847
0,177000	0,617218	4,999847
0,178000	0,601654	4,263306
0,179000	0,623322	3,150940
0,180000	0,602875	3,226624
0,181000	0,629120	3,299713
0,182000	0,610352	4,999847
0,183000	0,626678	4,999847
0,184000	0,614014	4,999847
0,185000	0,623322	4,999847
0,186000	0,616455	4,999847
0,187000	0,618744	4,999847
0,188000	0,624542	4,999847
0,189000	0,616150	4,049835
0,190000	0,627747	4,512939
0,191000	0,612793	2,911377
0,192000	0,634003	4,270782
0,193000	0,606689	4,999847
0,194000	0,637360	4,999847
0,195000	0,607758	4,999847
0,196000	0,639801	4,999847
0,197000	0,609894	4,999847
0,198000	0,633240	3,955536
0,199000	0,621796	3,706818
0,200000	0,630493	4,075623
0,201000	0,629120	4,480286
0,202000	0,626068	4,617920
0,203000	0,635529	4,999847
0,204000	0,624695	4,999847
0,205000	0,643463	4,999847
0,206000	0,622253	4,999847
0,207000	0,650635	4,999847
0,208000	0,621338	4,999847
0,209000	0,657043	3,840942
0,210000	0,615997	3,615875
0,211000	0,651703	3,906097
0,212000	0,628662	4,701080
0,213000	0,648804	4,638367
0,214000	0,637360	4,999847
0,215000	0,643463	4,999847
0,216000	0,645142	4,999847
0,217000	0,640869	4,999847
0,218000	0,654144	3,838654
0,219000	0,636444	3,512115
0,220000	0,660858	3,065033
0,221000	0,615234	4,525146
0,222000	0,655212	4,999847
0,223000	0,623779	4,999847
0,224000	0,671997	4,999847
0,225000	0,633850	4,999847
0,226000	0,668335	4,999847
0,227000	0,645142	4,999847
0,228000	0,661774	4,999847
0,229000	0,652924	4,333801
0,230000	0,655365	3,567657
0,231000	0,659943	2,915344
0,232000	0,648193	4,396362
0,233000	0,668182	4,999847
0,234000	0,615845	4,999847
0,235000	0,657349	4,999847
0,236000	0,633545	4,999847
0,237000	0,681915	4,999847
0,238000	0,642242	4,999847
0,239000	0,690460	3,273315
0,240000	0,648346	2,502747
0,241000	0,681152	4,509277
0,242000	0,659485	4,999847
0,243000	0,675812	4,999847
0,244000	0,670624	4,999847
0,245000	0,668793	4,999847
0,246000	0,678864	4,999847
0,247000	0,660095	4,999847
0,248000	0,686798	4,999847
0,249000	0,652161	4,323273
0,250000	0,692749	4,702606
0,251000	0,648346	3,241119
0,252000	0,702057	3,967896
0,253000	0,648956	4,999847
0,254000	0,702667	4,999847
0,255000	0,659637	4,999847
0,256000	0,691681	4,999847
0,257000	0,669403	4,999847
0,258000	0,680389	4,999847
0,259000	0,678558	3,368073
0,260000	0,671844	3,303833
0,261000	0,690460	4,999847
0,262000	0,659943	4,999847
0,263000	0,696259	4,999847
0,264000	0,651550	4,999847
0,265000	0,707245	4,999847
0,266000	0,652313	4,999847
0,267000	0,720062	4,999847
0,268000	0,654907	4,999847
0,269000	0,711365	3,097229
0,270000	0,672455	3,903351
0,271000	0,701752	3,946228
0,272000	0,683899	3,865814
0,273000	0,686493	4,999847
0,274000	0,692291	4,999847
0,275000	0,675507	4,999847
0,276000	0,671082	4,999847
0,277000	0,654144	4,999847
0,278000	0,710144	4,999847
0,279000	0,659027	3,393860
0,280000	0,725861	4,264984
0,281000	0,660858	2,923431
0,282000	0,739288	4,999847
0,283000	0,675812	4,999847
0,284000	0,727997	4,999847
0,285000	0,678406	4,999847
0,286000	0,691071	4,999847
0,287000	0,674438	4,999847
0,288000	0,699768	4,999847
0,289000	0,718842	3,526764
0,290000	0,703125	3,046722
0,291000	0,733032	3,699951
0,292000	0,695801	3,512115
0,293000	0,744019	4,999847
0,294000	0,689240	4,999847
0,295000	0,756226	4,999847
0,296000	0,682220	4,999847
0,297000	0,755463	4,999847
0,298000	0,693512	3,980255
0,299000	0,728912	2,795105
0,300000	0,703735	3,536224
0,301000	0,739746	3,916626
0,302000	0,733185	4,999847
0,303000	0,729523	4,999847
0,304000	0,744171	4,999847
0,305000	0,720367	4,999847
0,306000	0,756073	4,999847
0,307000	0,710754	4,999847
0,308000	0,764008	4,999847
0,309000	0,702667	4,279327
0,310000	0,779266	4,999847
0,311000	0,711517	3,017273
0,312000	0,782928	4,081726
0,313000	0,721130	4,999847
0,314000	0,763245	4,999847
0,315000	0,731812	4,999847
0,316000	0,757141	4,999847
0,317000	0,754547	4,999847
0,318000	0,746613	4,999847
0,319000	0,767975	2,823029
0,320000	0,729828	4,162903
0,321000	0,777893	4,985809
0,322000	0,727234	4,999847
0,323000	0,792389	4,999847
0,324000	0,724640	4,999847
0,325000	0,808258	4,999847
0,326000	0,732422	4,999847
0,327000	0,812988	4,999847
0,328000	0,747681	4,999847
0,329000	0,794220	4,103241
0,330000	0,761566	2,555084
0,331000	0,778503	3,042145
0,332000	0,774994	3,868713
0,333000	0,770721	4,999847
0,334000	0,793915	4,999847
0,335000	0,755768	4,999847
0,336000	0,804138	4,999847
0,337000	0,699921	4,999847
0,338000	0,792847	4,999847
0,339000	0,731812	3,041382
0,340000	0,828094	4,413605
0,341000	0,754547	4,238739
0,342000	0,838013	4,999847
0,343000	0,778198	4,999847
0,344000	0,826569	4,999847
0,345000	0,775299	4,999847
0,346000	0,785828	4,999847
0,347000	0,793152	4,999847
0,348000	0,741119	4,793091
0,349000	0,779114	3,752747
0,350000	0,727844	2,721558
0,351000	0,802612	2,840729
0,352000	0,730133	4,999847
0,353000	0,827789	4,999847
0,354000	0,751495	4,999847
0,355000	0,850372	4,999847
0,356000	0,750885	4,999847
0,357000	0,820007	4,999847
0,358000	0,757904	4,132233
0,359000	0,795898	3,063202
0,360000	0,775146	4,999847
0,361000	0,778198	3,970337
0,362000	0,791168	4,999847
0,363000	0,759583	4,999847
0,364000	0,803070	4,999847
0,365000	0,744629	4,999847
0,366000	0,818634	4,999847
0,367000	0,733185	4,999847
0,368000	0,832977	4,999847
0,369000	0,742035	4,469910
0,370000	0,837097	4,534607
0,371000	0,760651	3,979645
0,372000	0,823212	4,456787
0,373000	0,777740	4,999847
0,374000	0,798035	4,999847
0,375000	0,792542	4,999847
0,376000	0,773315	4,999847
0,377000	0,795746	4,999847
0,378000	0,751038	4,330139
0,379000	0,703583	3,829956
0,380000	0,689240	4,727936
0,381000	0,702209	2,643890
0,382000	0,747986	4,999847
0,383000	0,814972	4,999847
0,384000	0,794067	4,999847
0,385000	0,801086	4,999847
0,386000	0,812836	4,999847
0,387000	0,790863	4,999847
0,388000	0,831146	4,630127
0,389000	0,768585	3,945618
0,390000	0,838928	3,224792
0,391000	0,758362	3,756104
0,392000	0,848236	4,425812
0,393000	0,748444	4,999847
0,394000	0,849609	4,999847
0,395000	0,787201	4,999847
0,396000	0,849609	4,999847
0,397000	0,810089	4,919434
0,398000	0,837097	4,999847
0,399000	0,825043	3,604126
0,400000	0,818176	4,476013
0,401000	0,838165	4,555969
0,402000	0,795746	4,999847
0,403000	0,845642	4,999847
0,404000	0,783844	4,999847
0,405000	0,851746	4,999847
0,406000	0,765533	4,999847
0,407000	0,854950	4,999847
0,408000	0,791321	4,999847
0,409000	0,854645	3,997650
0,410000	0,785675	4,347076
0,411000	0,832672	4,591522
0,412000	0,786743	3,602905
0,413000	0,787201	4,999847
0,414000	0,800323	4,999847
0,415000	0,811005	4,999847
0,416000	0,836334	4,999847
0,417000	0,796051	4,999847
0,418000	0,851593	4,804840
0,419000	0,770416	3,842010
0,420000	0,854034	3,530731
0,421000	0,787659	4,999847
0,422000	0,854797	4,999847
0,423000	0,786438	4,999847
0,424000	0,855255	4,999847
0,425000	0,753326	4,999847
0,426000	0,681610	4,999847
0,427000	0,648193	4,999847
0,428000	0,632477	4,999847
0,429000	0,625458	4,627380
0,430000	0,621948	4,787140
0,431000	0,620422	4,031067
0,432000	0,619507	4,999847
0,433000	0,619507	4,999847
0,434000	0,619354	4,999847
0,435000	0,619202	4,999847
0,436000	0,619354	4,999847
0,437000	0,619049	4,850769
0,438000	0,618591	4,191895
0,439000	0,618134	3,202972
0,440000	0,618439	2,270203
0,441000	0,615997	4,853973
0,442000	0,618744	4,999847
0,443000	0,607300	4,999847
0,444000	0,606995	4,999847
0,445000	0,612335	4,999847
0,446000	0,591431	4,999847
0,447000	0,579987	4,999847
0,448000	0,569763	4,416046
0,449000	0,572968	4,117584
0,450000	0,573120	3,205566
0,451000	0,574341	3,957367
0,452000	0,576630	3,689728
0,453000	0,572815	4,999847
0,454000	0,572968	4,999847
0,455000	0,572510	4,999847
0,456000	0,573425	4,999847
0,457000	0,571594	4,999847
0,458000	0,573425	4,167023
0,459000	0,562744	3,707733
0,460000	0,563660	3,486786
0,461000	0,565186	4,644623
0,462000	0,569000	4,999847
0,463000	0,568237	4,999847
0,464000	0,570831	4,999847
0,465000	0,569763	4,999847
0,466000	0,560760	4,999847
0,467000	0,566559	4,999847
0,468000	0,561218	4,999847
0,469000	0,562134	3,633118
0,470000	0,564270	2,846069
0,471000	0,560760	4,206085
0,472000	0,549622	4,999847
0,473000	0,559235	4,999847
0,474000	0,522766	4,999847
0,475000	0,518188	4,999847
0,476000	0,516205	4,999847
0,477000	0,503082	4,999847
0,478000	0,508423	4,666290
0,479000	0,536194	3,183441
0,480000	0,546570	2,203369
0,481000	0,527039	4,999847
0,482000	0,551300	4,924316
0,483000	0,562439	4,999847
0,484000	0,574646	4,999847
0,485000	0,577087	4,999847
0,486000	0,579376	4,999847
0,487000	0,581055	4,999847
0,488000	0,576172	4,999847
0,489000	0,576324	3,235321
0,490000	0,576324	4,846191
0,491000	0,578156	4,461365
0,492000	0,577545	4,050293
0,493000	0,576172	4,999847
0,494000	0,556946	4,999847
0,495000	0,554962	4,999847
0,496000	0,563202	4,999847
0,497000	0,569916	4,627838
0,498000	0,570679	4,542847
0,499000	0,575867	2,673492
0,500000	0,577087	1,983185
0,501000	0,577850	4,999847
0,502000	0,574493	4,999847
0,503000	0,559845	4,999847
0,504000	0,571594	4,999847
0,505000	0,574646	4,999847
0,506000	0,574188	4,999847
0,507000	0,573730	4,999847
0,508000	0,574799	4,868927
0,509000	0,572205	3,795319
0,510000	0,571289	4,999847
0,511000	0,564270	4,999847
0,512000	0,565948	4,186249
0,513000	0,568542	4,999847
0,514000	0,569305	4,999847
0,515000	0,565796	4,999847
0,516000	0,569916	4,999847
0,517000	0,570679	4,999847
0,518000	0,574799	4,416656
0,519000	0,575562	3,113708
0,520000	0,573273	3,085937
0,521000	0,573425	4,466705
0,522000	0,572662	4,999847
0,523000	0,571442	4,999847
0,524000	0,568237	4,999847
0,525000	0,569305	4,999847
0,526000	0,568695	4,999847
0,527000	0,568390	4,999847
0,528000	0,572662	4,999847
0,529000	0,579834	3,587494
0,530000	0,579376	4,846954
0,531000	0,578461	4,133759
0,532000	0,571899	4,311676
0,533000	0,573730	4,999847
0,534000	0,568085	4,999847
0,535000	0,579529	4,999847
0,536000	0,587006	4,999847
0,537000	0,585327	4,968414
0,538000	0,585175	4,069366
0,539000	0,582275	2,327423
0,540000	0,573425	3,482056
0,541000	0,545654	4,999847
0,542000	0,559845	4,999847
0,543000	0,572968	4,999847
0,544000	0,581055	4,999847
0,545000	0,586700	4,999847
0,546000	0,587769	4,999847
0,547000	0,589600	4,999847
0,548000	0,585632	4,999847
0,549000	0,585632	3,769684
0,550000	0,570374	3,971710
0,551000	0,579529	4,707336
0,552000	0,579529	4,970856
0,553000	0,579681	4,999847
0,554000	0,580292	4,999847
0,555000	0,582581	4,999847
0,556000	0,576477	4,999847
0,557000	0,580139	4,999847
0,558000	0,582581	4,999847
0,559000	0,569763	2,907562
0,560000	0,586853	2,647247
0,561000	0,583954	4,598083
0,562000	0,588074	4,999847
0,563000	0,559235	4,999847
0,564000	0,561371	4,999847
0,565000	0,553131	4,999847
0,566000	0,590973	4,999847
0,567000	0,599213	4,999847
0,568000	0,612488	4,999847
0,569000	0,604858	3,227844
0,570000	0,608978	4,292450
0,571000	0,599976	3,562317
0,572000	0,604401	4,999847
0,573000	0,587921	4,999847
0,574000	0,596924	4,999847
0,575000	0,599823	4,999847
0,576000	0,599518	4,999847
0,577000	0,599823	4,999847
0,578000	0,564575	4,557800
0,579000	0,577545	3,102722
0,580000	0,586548	3,792877
0,581000	0,601196	4,729309
0,582000	0,594025	4,999847
0,583000	0,565491	4,999847
0,584000	0,533142	4,999847
0,585000	0,574188	4,999847
0,586000	0,590057	4,999847
0,587000	0,600128	4,999847
0,588000	0,603333	4,999847
0,589000	0,607452	3,859253
0,590000	0,606842	4,382477
0,591000	0,572815	4,060364
0,592000	0,582428	4,675140
0,593000	0,561066	4,999847
0,594000	0,596008	4,999847
0,595000	0,598297	4,999847
0,596000	0,618591	4,999847
0,597000	0,601959	4,999847
0,598000	0,620422	4,999847
0,599000	0,613556	2,709503
0,600000	0,620575	3,323517
0,601000	0,617676	4,350586
0,602000	0,619507	4,999847
0,603000	0,603943	4,999847
0,604000	0,579529	4,999847
0,605000	0,588684	4,999847
0,606000	0,569611	4,999847
0,607000	0,592804	4,999847
0,608000	0,565948	4,999847
0,609000	0,599670	3,297729
0,610000	0,568848	4,728088
0,611000	0,606384	3,785706
0,612000	0,599823	4,999847
0,613000	0,622253	4,999847
0,614000	0,615692	4,999847
0,615000	0,624695	4,999847
0,616000	0,625458	4,999847
0,617000	0,625610	4,999847
0,618000	0,628510	4,676361
0,619000	0,621033	3,142548
0,620000	0,630798	2,008362
0,621000	0,619354	4,096222
0,622000	0,635986	4,999847
0,623000	0,618286	4,999847
0,624000	0,639648	4,999847
0,625000	0,615997	4,999847
0,626000	0,639648	4,999847
0,627000	0,620117	4,999847
0,628000	0,635223	4,652100
0,629000	0,626984	4,424133
0,630000	0,633698	4,999847
0,631000	0,629730	3,284454
0,632000	0,628967	4,999847
0,633000	0,637054	4,999847
0,634000	0,625153	4,999847
0,635000	0,642853	4,999847
0,636000	0,626678	4,999847
0,637000	0,650024	4,987183
0,638000	0,623474	3,736420
0,639000	0,654449	3,228912
0,640000	0,626373	3,024597
0,641000	0,655212	4,388580
0,642000	0,650024	4,999847
0,643000	0,662231	4,999847
0,644000	0,633545	4,999847
0,645000	0,634613	4,999847
0,646000	0,635986	4,999847
0,647000	0,624542	4,999847
0,648000	0,644379	4,704437
0,649000	0,636749	3,661652
0,650000	0,668030	4,098358
0,651000	0,651093	4,434509
0,652000	0,682678	4,999847
0,653000	0,653534	4,999847
0,654000	0,691223	4,999847
0,655000	0,654907	4,999847
0,656000	0,684662	4,999847
0,657000	0,667725	4,999847
0,658000	0,682373	4,099731
0,659000	0,669861	2,450562
0,660000	0,673218	3,846436
0,661000	0,678711	4,923859
0,662000	0,669403	4,999847
0,663000	0,687408	4,999847
0,664000	0,668945	4,999847
0,665000	0,695343	4,999847
0,666000	0,647430	4,999847
0,667000	0,691223	4,999847
0,668000	0,623932	4,637604
0,669000	0,683746	3,825073
0,670000	0,649414	4,986572
0,671000	0,689850	3,524628
0,672000	0,675812	4,747162
0,673000	0,691833	4,999847
0,674000	0,688782	4,999847
0,675000	0,686035	4,999847
0,676000	0,695343	4,999847
0,677000	0,679169	4,999847
0,678000	0,703125	4,661407
0,679000	0,672455	2,955475
0,680000	0,708466	3,679504
0,681000	0,659180	4,999847
0,682000	0,712891	4,999847
0,683000	0,662842	4,999847
0,684000	0,714417	4,999847
0,685000	0,648804	4,999847
0,686000	0,679474	4,999847
0,687000	0,674744	4,999847
0,688000	0,690765	4,367676
0,689000	0,692444	4,295197
0,690000	0,682220	4,107361
0,691000	0,697784	4,091187
0,692000	0,655975	4,593811
0,693000	0,697937	4,999847
