LabVIEW Measurement	
Writer_Version	2
Reader_Version	2
Separator	Tab
Decimal_Separator	,
Multi_Headings	Yes
X_Columns	One
Time_Pref	Absolute
Operator	d.nicolai
Date	2023/11/09
Time	16:04:05,6565121999996605588
***End_of_Header***	
	
Channels	2		
Samples	1000	1000	
Date	2023/11/09	2023/11/09	
Time	16:04:15,2395128999998764786	16:04:15,2395128999998764786	
Y_Unit_Label	Volts	Volts	
X_Dimension	Time	Time	
X0	0,0000000000000000E+0	0,0000000000000000E+0	
Delta_X	0,001000	0,001000	
***End_of_Header***			
X_Value	powebox	triggerbox	Comment
0,000000	0,623169	0,990143
0,001000	0,624847	4,999847
0,002000	0,627747	4,974976
0,003000	0,635681	4,999847
0,004000	0,646515	4,999847
0,005000	0,648499	4,999847
0,006000	0,649719	4,999847
0,007000	0,650330	4,999847
0,008000	0,647736	4,999847
0,009000	0,639191	4,224854
0,010000	0,631104	2,637024
0,011000	0,631256	4,999847
0,012000	0,632172	3,999329
0,013000	0,637665	4,999847
0,014000	0,632477	4,999847
0,015000	0,639038	4,999847
0,016000	0,638733	4,999847
0,017000	0,636444	4,999847
0,018000	0,635834	4,999847
0,019000	0,637665	3,240662
0,020000	0,636902	2,815704
0,021000	0,632935	4,600067
0,022000	0,636444	4,796906
0,023000	0,622864	4,999847
0,024000	0,643005	4,999847
0,025000	0,656128	4,999847
0,026000	0,661926	4,999847
0,027000	0,661469	4,999847
0,028000	0,661163	4,999847
0,029000	0,659637	4,138947
0,030000	0,663605	3,531952
0,031000	0,661011	4,999847
0,032000	0,660095	3,719940
0,033000	0,656738	4,999847
0,034000	0,661011	4,999847
0,035000	0,653992	4,999847
0,036000	0,655060	4,999847
0,037000	0,647888	4,999847
0,038000	0,550232	4,921875
0,039000	0,602570	3,118591
0,040000	0,637970	3,029785
0,041000	0,651093	3,898926
0,042000	0,647430	4,456787
0,043000	0,646820	4,999847
0,044000	0,633850	4,999847
0,045000	0,632629	4,999847
0,046000	0,628357	4,999847
0,047000	0,643921	4,999847
0,048000	0,645447	4,999847
0,049000	0,639648	3,967285
0,050000	0,638885	3,578339
0,051000	0,642090	4,999847
0,052000	0,642395	2,919464
0,053000	0,641479	4,999847
0,054000	0,641327	4,999847
0,055000	0,637207	4,999847
0,056000	0,642242	4,999847
0,057000	0,638885	4,999847
0,058000	0,643005	4,701233
0,059000	0,634613	3,695068
0,060000	0,639038	3,775940
0,061000	0,624390	4,999847
0,062000	0,631866	4,999847
0,063000	0,624542	4,999847
0,064000	0,572510	4,999847
0,065000	0,580902	4,999847
0,066000	0,619202	4,999847
0,067000	0,636902	4,999847
0,068000	0,643158	4,999847
0,069000	0,646515	3,179474
0,070000	0,643158	3,209839
0,071000	0,648651	4,849548
0,072000	0,639954	3,285370
0,073000	0,642395	4,999847
0,074000	0,629120	4,999847
0,075000	0,636749	4,999847
0,076000	0,625153	4,999847
0,077000	0,628510	4,999847
0,078000	0,624847	4,982452
0,079000	0,631866	3,317108
0,080000	0,635681	4,475708
0,081000	0,641327	3,158112
0,082000	0,639343	4,999847
0,083000	0,636139	4,999847
0,084000	0,631714	4,999847
0,085000	0,635834	4,999847
0,086000	0,645294	4,999847
0,087000	0,631866	4,999847
0,088000	0,649109	4,999847
0,089000	0,639343	2,948914
0,090000	0,651550	2,874756
0,091000	0,532532	3,377686
0,092000	0,585480	4,441986
0,093000	0,620575	4,908600
0,094000	0,647583	4,999847
0,095000	0,660706	4,999847
0,096000	0,666199	4,999847
0,097000	0,671234	4,999847
0,098000	0,630646	4,999847
0,099000	0,629425	3,608093
0,100000	0,622864	4,028625
0,101000	0,656738	3,447723
0,102000	0,665283	4,999847
0,103000	0,684052	4,999847
0,104000	0,668182	4,999847
0,105000	0,692291	4,999847
0,106000	0,684509	4,999847
0,107000	0,694733	4,999847
0,108000	0,689545	4,697418
0,109000	0,688934	4,039917
0,110000	0,688019	3,052673
0,111000	0,679779	4,480591
0,112000	0,679474	4,623260
0,113000	0,667572	4,999847
0,114000	0,674896	4,999847
0,115000	0,659180	4,999847
0,116000	0,675354	4,999847
0,117000	0,658722	4,999847
0,118000	0,675049	4,062195
0,119000	0,655823	3,514557
0,120000	0,672150	4,317017
0,121000	0,663300	4,575806
0,122000	0,676575	4,999847
0,123000	0,674133	4,999847
0,124000	0,680542	4,999847
0,125000	0,681763	4,999847
0,126000	0,673828	4,999847
0,127000	0,683899	4,999847
0,128000	0,678406	4,237366
0,129000	0,692139	4,410553
0,130000	0,680084	3,109283
0,131000	0,691986	4,101410
0,132000	0,665436	3,455658
0,133000	0,679932	4,999847
0,134000	0,658264	4,999847
0,135000	0,677795	4,999847
0,136000	0,666504	4,999847
0,137000	0,678558	4,999847
0,138000	0,672607	4,739685
0,139000	0,671539	3,516388
0,140000	0,677490	2,920380
0,141000	0,680695	4,007721
0,142000	0,686798	4,999847
0,143000	0,670319	4,999847
0,144000	0,686646	4,999847
0,145000	0,664368	4,999847
0,146000	0,685883	4,999847
0,147000	0,661469	4,999847
0,148000	0,679321	4,999847
0,149000	0,659790	4,375610
0,150000	0,671844	2,817535
0,151000	0,672760	4,499512
0,152000	0,681763	4,999847
0,153000	0,678864	4,999847
0,154000	0,678253	4,999847
0,155000	0,687866	4,999847
0,156000	0,677795	4,999847
0,157000	0,688934	4,999847
0,158000	0,667267	4,999847
0,159000	0,684967	4,001312
0,160000	0,660095	3,255920
0,161000	0,680389	4,132690
0,162000	0,652008	4,999847
0,163000	0,677185	4,999847
0,164000	0,659485	4,999847
0,165000	0,672302	4,999847
0,166000	0,660553	4,999847
0,167000	0,667419	4,999847
0,168000	0,669098	4,333191
0,169000	0,670471	3,939819
0,170000	0,684814	2,480621
0,171000	0,672760	4,007721
0,172000	0,692444	4,571533
0,173000	0,635223	4,999847
0,174000	0,693817	4,999847
0,175000	0,679169	4,999847
0,176000	0,715027	4,999847
0,177000	0,685730	4,999847
0,178000	0,706940	4,246368
0,179000	0,686798	3,529816
0,180000	0,698242	2,795715
0,181000	0,688629	4,270782
0,182000	0,686646	4,999847
0,183000	0,689545	4,999847
0,184000	0,678406	4,999847
0,185000	0,693817	4,999847
0,186000	0,679169	4,999847
0,187000	0,699463	4,999847
0,188000	0,657196	4,999847
0,189000	0,697937	4,521332
0,190000	0,664520	2,814941
0,191000	0,715027	4,999847
0,192000	0,692902	4,284363
0,193000	0,725555	4,999847
0,194000	0,708008	4,999847
0,195000	0,724030	4,999847
0,196000	0,715027	4,999847
0,197000	0,716705	4,999847
0,198000	0,720673	4,389801
0,199000	0,704346	3,810120
0,200000	0,697327	2,202606
0,201000	0,661774	4,942169
0,202000	0,707703	4,999847
0,203000	0,678558	4,999847
0,204000	0,722351	4,999847
0,205000	0,688019	4,999847
0,206000	0,733032	4,999847
0,207000	0,694580	4,999847
0,208000	0,711517	4,960175
0,209000	0,690155	4,683990
0,210000	0,702515	4,911652
0,211000	0,701752	3,580627
0,212000	0,698547	4,259949
0,213000	0,715332	4,999847
0,214000	0,697632	4,999847
0,215000	0,725250	4,999847
0,216000	0,676575	4,999847
0,217000	0,715485	4,999847
0,218000	0,586700	4,999847
0,219000	0,681763	3,543091
0,220000	0,586853	4,999847
0,221000	0,655975	3,714600
0,222000	0,621338	4,999847
0,223000	0,695190	4,999847
0,224000	0,707092	4,999847
0,225000	0,736237	4,999847
0,226000	0,737915	4,999847
0,227000	0,738373	4,999847
0,228000	0,749512	4,929810
0,229000	0,735321	4,078979
0,230000	0,758667	1,523590
0,231000	0,729523	4,124298
0,232000	0,765228	3,557587
0,233000	0,730743	4,926910
0,234000	0,777588	4,999847
0,235000	0,739288	4,999847
0,236000	0,781860	4,999847
0,237000	0,744934	4,999847
0,238000	0,776672	4,334106
0,239000	0,755615	3,769989
0,240000	0,767059	3,957214
0,241000	0,762482	4,396362
0,242000	0,751801	4,434814
0,243000	0,764923	4,999847
0,244000	0,742035	4,999847
0,245000	0,773621	4,999847
0,246000	0,733948	4,999847
0,247000	0,781250	4,999847
0,248000	0,728302	4,999847
0,249000	0,790253	4,097290
0,250000	0,749664	3,822632
0,251000	0,799103	4,023132
0,252000	0,762024	3,848572
0,253000	0,784302	4,999847
0,254000	0,767517	4,999847
0,255000	0,772858	4,999847
0,256000	0,775299	4,999847
0,257000	0,750732	4,999847
0,258000	0,777130	4,749908
0,259000	0,742187	3,489380
0,260000	0,789185	3,381348
0,261000	0,732422	4,999847
0,262000	0,798340	4,810944
0,263000	0,741425	4,999847
0,264000	0,809021	4,999847
0,265000	0,756989	4,999847
0,266000	0,807953	4,999847
0,267000	0,771637	4,999847
0,268000	0,796967	4,913177
0,269000	0,783844	3,956146
0,270000	0,779419	2,837372
0,271000	0,791168	3,431244
0,272000	0,761414	4,418182
0,273000	0,798645	4,999847
0,274000	0,764771	4,999847
0,275000	0,817871	4,999847
0,276000	0,748749	4,999847
0,277000	0,826874	4,999847
0,278000	0,761261	4,999847
0,279000	0,832520	2,880249
0,280000	0,774231	3,935699
0,281000	0,830994	4,652863
0,282000	0,780792	4,999847
0,283000	0,811768	4,999847
0,284000	0,801697	4,999847
0,285000	0,798492	4,999847
0,286000	0,817261	4,999847
0,287000	0,796051	4,999847
0,288000	0,834961	4,573059
0,289000	0,793762	3,950500
0,290000	0,851746	3,220367
0,291000	0,776215	4,640961
0,292000	0,856018	3,697052
0,293000	0,782318	4,999847
0,294000	0,855560	4,999847
0,295000	0,795898	4,999847
0,296000	0,855713	4,999847
0,297000	0,823364	4,999847
0,298000	0,821228	4,517670
0,299000	0,818634	3,184814
0,300000	0,809631	4,149017
0,301000	0,837708	3,578644
0,302000	0,807343	4,531097
0,303000	0,818634	4,999847
0,304000	0,776520	4,999847
0,305000	0,865936	4,999847
0,306000	0,792999	4,999847
0,307000	0,870209	4,999847
0,308000	0,805359	4,999847
0,309000	0,867004	3,477631
0,310000	0,816650	3,493500
0,311000	0,852661	3,358917
0,312000	0,831451	4,951630
0,313000	0,841217	4,999847
0,314000	0,848694	4,999847
0,315000	0,818329	4,999847
0,316000	0,857086	4,999847
0,317000	0,815277	4,999847
0,318000	0,870514	4,999847
0,319000	0,796356	3,097839
0,320000	0,876465	4,017639
0,321000	0,815277	4,377594
0,322000	0,875549	4,999847
0,323000	0,825195	4,999847
0,324000	0,871582	4,999847
0,325000	0,839081	4,999847
0,326000	0,864563	4,999847
0,327000	0,854034	4,999847
0,328000	0,840912	4,891815
0,329000	0,873108	4,143982
0,330000	0,816040	3,353119
0,331000	0,761719	3,002472
0,332000	0,744781	4,652252
0,333000	0,737305	4,999847
0,334000	0,756989	4,999847
0,335000	0,863495	4,999847
0,336000	0,807648	4,999847
0,337000	0,864716	4,999847
0,338000	0,828094	4,057617
0,339000	0,852661	3,405304
0,340000	0,849152	3,317261
0,341000	0,825195	4,728394
0,342000	0,857086	4,999847
0,343000	0,811920	4,999847
0,344000	0,868073	4,999847
0,345000	0,803070	4,999847
0,346000	0,874023	4,999847
0,347000	0,794678	4,999847
0,348000	0,877686	4,999847
0,349000	0,817719	3,798828
0,350000	0,874786	3,546600
0,351000	0,821838	3,614044
0,352000	0,864410	4,073792
0,353000	0,842590	4,999847
0,354000	0,847626	4,999847
0,355000	0,860291	4,999847
0,356000	0,843353	4,999847
0,357000	0,875397	4,999847
0,358000	0,832977	4,521027
0,359000	0,880585	3,150024
0,360000	0,809937	4,210358
0,361000	0,903168	3,203888
0,362000	0,809021	4,999847
0,363000	0,882568	4,999847
0,364000	0,820007	4,999847
0,365000	0,856018	4,999847
0,366000	0,825195	4,999847
0,367000	0,866241	4,999847
0,368000	0,860291	4,362793
0,369000	0,843353	4,464111
0,370000	0,872498	4,274139
0,371000	0,837708	3,237457
0,372000	0,883636	3,671570
0,373000	0,906677	4,999847
0,374000	0,885010	4,999847
0,375000	0,818787	4,999847
0,376000	0,891724	4,999847
0,377000	0,802307	4,999847
0,378000	0,716705	4,411469
0,379000	0,679474	3,562469
0,380000	0,663300	3,174744
0,381000	0,653076	4,624329
0,382000	0,656891	4,999847
0,383000	0,659485	4,999847
0,384000	0,658875	4,999847
0,385000	0,656281	4,999847
0,386000	0,653839	4,999847
0,387000	0,652008	4,999847
0,388000	0,651703	4,485626
0,389000	0,655518	4,743347
0,390000	0,657196	4,664917
0,391000	0,654907	2,672729
0,392000	0,655975	3,911743
0,393000	0,652466	4,889221
0,394000	0,648041	4,999847
0,395000	0,650330	4,999847
0,396000	0,653381	4,999847
0,397000	0,654449	4,999847
0,398000	0,642548	4,399261
0,399000	0,630035	4,165344
0,400000	0,623627	2,798157
0,401000	0,618744	2,696838
0,402000	0,620575	4,993439
0,403000	0,616760	4,999847
0,404000	0,615387	4,999847
0,405000	0,588531	4,999847
0,406000	0,575714	4,999847
0,407000	0,532074	4,999847
0,408000	0,467834	4,918060
0,409000	0,426178	4,278107
0,410000	0,415802	2,523346
0,411000	0,406952	3,274384
0,412000	0,483246	4,599609
0,413000	0,570068	4,950562
0,414000	0,615387	4,999847
0,415000	0,636749	4,999847
0,416000	0,644836	4,999847
0,417000	0,648499	4,999847
0,418000	0,647278	3,787842
0,419000	0,646362	3,145905
0,420000	0,644531	3,982239
0,421000	0,647736	4,999847
0,422000	0,644226	4,999847
0,423000	0,641327	4,999847
0,424000	0,641174	4,999847
0,425000	0,644531	4,999847
0,426000	0,640106	4,999847
0,427000	0,643463	4,999847
0,428000	0,646820	4,512177
0,429000	0,647430	4,468536
0,430000	0,648804	3,017120
0,431000	0,643616	3,883362
0,432000	0,645905	4,803467
0,433000	0,644379	4,999847
0,434000	0,645142	4,999847
0,435000	0,639343	4,999847
0,436000	0,642853	4,999847
0,437000	0,641785	4,999847
0,438000	0,640717	4,366608
0,439000	0,639343	3,625183
0,440000	0,640411	3,318329
0,441000	0,640106	4,842834
0,442000	0,639343	4,999847
0,443000	0,635986	4,999847
0,444000	0,631866	4,999847
0,445000	0,628815	4,999847
0,446000	0,627594	4,999847
0,447000	0,633698	4,999847
0,448000	0,632629	4,373016
0,449000	0,636139	4,252625
0,450000	0,632019	2,092896
0,451000	0,629578	4,185944
0,452000	0,626526	4,261017
0,453000	0,626831	4,999847
0,454000	0,624390	4,999847
0,455000	0,624237	4,999847
0,456000	0,629883	4,999847
0,457000	0,628815	4,999847
0,458000	0,628357	4,999847
0,459000	0,626678	4,275513
0,460000	0,630341	2,713776
0,461000	0,627899	4,379120
0,462000	0,633850	4,981689
0,463000	0,632019	4,999847
0,464000	0,637665	4,999847
0,465000	0,634766	4,999847
0,466000	0,637512	4,999847
0,467000	0,629730	4,999847
0,468000	0,628662	4,999847
0,469000	0,622864	3,562775
0,470000	0,619812	3,569946
0,471000	0,620117	4,273834
0,472000	0,619354	3,895721
0,473000	0,620575	4,999847
0,474000	0,618744	4,999847
0,475000	0,619659	4,999847
0,476000	0,614319	4,999847
0,477000	0,619354	4,999847
0,478000	0,614014	4,781647
0,479000	0,620880	3,530121
0,480000	0,620422	2,512054
0,481000	0,621490	4,999847
0,482000	0,619049	4,999847
0,483000	0,618134	4,999847
0,484000	0,619812	4,999847
0,485000	0,617676	4,999847
0,486000	0,617676	4,999847
0,487000	0,611267	4,999847
0,488000	0,614014	4,999847
0,489000	0,615082	4,200592
0,490000	0,626068	4,998627
0,491000	0,624237	4,268494
0,492000	0,632782	3,290405
0,493000	0,626678	4,999847
0,494000	0,630035	4,999847
0,495000	0,628204	4,999847
0,496000	0,629272	4,999847
0,497000	0,630493	4,999847
0,498000	0,631561	4,999847
0,499000	0,633545	3,463440
0,500000	0,626526	4,110413
0,501000	0,626831	4,999847
0,502000	0,623627	4,775238
0,503000	0,629883	4,999847
0,504000	0,624695	4,999847
0,505000	0,630646	4,999847
0,506000	0,623779	4,999847
0,507000	0,625916	4,999847
0,508000	0,595245	4,999847
0,509000	0,617523	4,127197
0,510000	0,621643	3,998413
0,511000	0,626373	3,419189
0,512000	0,625000	4,299927
0,513000	0,622101	4,999847
0,514000	0,615692	4,999847
0,515000	0,612335	4,999847
0,516000	0,611877	4,999847
0,517000	0,505829	4,999847
0,518000	0,586090	4,999847
0,519000	0,611420	3,486023
0,520000	0,638123	2,794952
0,521000	0,633392	4,117432
0,522000	0,646210	4,999847
0,523000	0,639343	4,999847
0,524000	0,644379	4,999847
0,525000	0,640717	4,999847
0,526000	0,644531	4,999847
0,527000	0,644836	4,999847
0,528000	0,642395	4,999847
0,529000	0,642395	2,825012
0,530000	0,634003	3,891144
0,531000	0,637207	3,430328
0,532000	0,625458	4,786072
0,533000	0,633545	4,999847
0,534000	0,622406	4,999847
0,535000	0,630798	4,999847
0,536000	0,617523	4,999847
0,537000	0,625763	4,999847
0,538000	0,619659	4,999847
0,539000	0,622711	2,535400
0,540000	0,621643	3,472748
0,541000	0,620422	3,964081
0,542000	0,616913	4,810333
0,543000	0,609741	4,999847
0,544000	0,614319	4,999847
0,545000	0,609589	4,999847
0,546000	0,618744	4,999847
0,547000	0,608673	4,999847
0,548000	0,617676	4,706421
0,549000	0,614014	4,689178
0,550000	0,632629	4,195709
0,551000	0,626373	3,020477
0,552000	0,641785	3,974152
0,553000	0,638580	4,999847
0,554000	0,646210	4,999847
0,555000	0,646667	4,999847
0,556000	0,646820	4,999847
0,557000	0,642853	4,999847
0,558000	0,639801	4,576263
0,559000	0,648041	2,344971
0,560000	0,642090	4,297180
0,561000	0,656738	4,307098
0,562000	0,641632	4,999847
0,563000	0,657349	4,999847
0,564000	0,637360	4,999847
0,565000	0,656128	4,999847
0,566000	0,638885	4,999847
0,567000	0,645752	4,999847
0,568000	0,641785	4,843597
0,569000	0,646057	3,738251
0,570000	0,644073	3,392181
0,571000	0,639038	3,355560
0,572000	0,643311	4,999847
0,573000	0,635223	4,999847
0,574000	0,651245	4,999847
0,575000	0,638733	4,999847
0,576000	0,652313	4,999847
0,577000	0,633392	4,999847
0,578000	0,660248	4,224243
0,579000	0,642548	3,117065
0,580000	0,662689	4,036865
0,581000	0,647583	3,622589
0,582000	0,654755	4,999847
0,583000	0,650177	4,999847
0,584000	0,652161	4,999847
0,585000	0,655060	4,999847
0,586000	0,650635	4,999847
0,587000	0,657349	4,999847
0,588000	0,643616	4,999847
0,589000	0,660095	3,974762
0,590000	0,641632	3,608398
0,591000	0,662079	3,076630
0,592000	0,635681	4,193268
0,593000	0,664062	4,999847
0,594000	0,642700	4,999847
0,595000	0,665283	4,999847
0,596000	0,654449	4,999847
0,597000	0,662994	4,999847
0,598000	0,658569	4,192200
0,599000	0,657654	3,655243
0,600000	0,662079	2,209320
0,601000	0,651550	4,291534
0,602000	0,664978	4,999847
0,603000	0,647125	4,999847
0,604000	0,668793	4,999847
0,605000	0,644379	4,999847
0,606000	0,674133	4,999847
0,607000	0,644379	4,999847
0,608000	0,677643	4,999847
0,609000	0,649719	4,551086
0,610000	0,638123	3,232574
0,611000	0,634613	3,681030
0,612000	0,653534	4,999847
0,613000	0,655975	4,753265
0,614000	0,656433	4,999847
0,615000	0,667877	4,999847
0,616000	0,654297	4,999847
0,617000	0,675354	4,999847
0,618000	0,649719	3,882141
0,619000	0,682831	3,507843
0,620000	0,553284	4,999847
0,621000	0,641174	4,447479
0,622000	0,564270	4,999847
0,623000	0,651093	4,999847
0,624000	0,651093	4,999847
0,625000	0,678406	4,999847
0,626000	0,670166	4,999847
0,627000	0,678253	4,999847
0,628000	0,683289	4,999847
0,629000	0,679626	4,368439
0,630000	0,691986	3,618164
0,631000	0,669556	2,848969
0,632000	0,694733	3,992310
0,633000	0,659180	4,999847
0,634000	0,698242	4,999847
0,635000	0,653076	4,999847
0,636000	0,705261	4,999847
0,637000	0,663605	4,999847
0,638000	0,698242	3,977509
0,639000	0,670013	3,136902
0,640000	0,689392	4,351654
0,641000	0,680237	3,410797
0,642000	0,684204	4,999847
0,643000	0,692444	4,999847
0,644000	0,682526	4,999847
0,645000	0,704346	4,999847
0,646000	0,680695	4,999847
0,647000	0,713806	4,999847
0,648000	0,674744	4,585114
0,649000	0,720520	4,393005
0,650000	0,671997	3,055573
0,651000	0,727844	2,820587
0,652000	0,685883	4,713593
0,653000	0,722198	4,999847
0,654000	0,697937	4,999847
0,655000	0,713043	4,999847
0,656000	0,706787	4,999847
0,657000	0,706329	4,999847
0,658000	0,716400	3,836365
0,659000	0,700226	3,205566
0,660000	0,725861	3,144531
0,661000	0,694427	4,999847
0,662000	0,734406	4,999847
0,663000	0,688934	4,999847
0,664000	0,743256	4,999847
0,665000	0,691376	4,999847
0,666000	0,749969	4,999847
0,667000	0,707703	4,999847
0,668000	0,739746	4,999847
0,669000	0,718842	4,399872
0,670000	0,732269	3,454590
0,671000	0,730591	3,354340
0,672000	0,729370	4,904633
0,673000	0,743408	4,999847
0,674000	0,721283	4,999847
0,675000	0,752563	4,999847
0,676000	0,717621	4,999847
0,677000	0,783386	4,759369
0,678000	0,777130	4,999847
0,679000	0,771484	3,596497
0,680000	0,718689	2,939911
0,681000	0,777588	4,999847
0,682000	0,732574	4,999847
0,683000	0,769653	4,999847
0,684000	0,747070	4,999847
0,685000	0,761719	4,999847
0,686000	0,775757	4,999847
0,687000	0,739288	4,999847
0,688000	0,757904	4,999847
0,689000	0,725708	4,400787
0,690000	0,765076	4,352722
0,691000	0,712891	3,361206
0,692000	0,772095	4,415894
0,693000	0,711975	4,999847
