LabVIEW Measurement	
Writer_Version	2
Reader_Version	2
Separator	Tab
Decimal_Separator	,
Multi_Headings	Yes
X_Columns	One
Time_Pref	Absolute
Operator	d.nicolai
Date	2023/11/09
Time	16:04:05,6565121999996605588
***End_of_Header***	
	
Channels	2		
Samples	1000	1000	
Date	2023/11/09	2023/11/09	
Time	16:04:54,5585127999997113023	16:04:54,5585127999997113023	
Y_Unit_Label	Volts	Volts	
X_Dimension	Time	Time	
X0	0,0000000000000000E+0	0,0000000000000000E+0	
Delta_X	0,001000	0,001000	
***End_of_Header***			
X_Value	powebox	triggerbox	Comment
0,000000	0,644989	0,898285
0,001000	0,646515	4,642639
0,002000	0,647430	4,999847
0,003000	0,647736	4,999847
0,004000	0,647888	4,999847
0,005000	0,647888	4,999847
0,006000	0,647888	4,999847
0,007000	0,648041	4,999847
0,008000	0,648041	4,999847
0,009000	0,647888	4,441071
0,010000	0,648041	4,311066
0,011000	0,647736	3,334198
0,012000	0,647736	4,999847
0,013000	0,647430	4,999847
0,014000	0,648193	4,999847
0,015000	0,522003	4,999847
0,016000	0,445404	4,999847
0,017000	0,431366	4,999847
0,018000	0,404053	4,900208
0,019000	0,410461	3,377380
0,020000	0,399170	1,215820
0,021000	0,404968	4,999847
0,022000	0,400848	4,999847
0,023000	0,402527	4,999847
0,024000	0,404205	4,999847
0,025000	0,401001	4,999847
0,026000	0,408325	4,999847
0,027000	0,399628	4,999847
0,028000	0,411530	4,999847
0,029000	0,397949	3,401489
0,030000	0,415649	3,106842
0,031000	0,397034	3,862762
0,032000	0,417480	4,605255
0,033000	0,400238	4,999847
0,034000	0,415649	4,999847
0,035000	0,405579	4,999847
0,036000	0,413208	4,999847
0,037000	0,410919	4,999847
0,038000	0,410919	4,603577
0,039000	0,415802	4,127350
0,040000	0,408783	2,797241
0,041000	0,420380	3,575134
0,042000	0,406647	4,999847
0,043000	0,425110	4,999847
0,044000	0,404510	4,999847
0,045000	0,429840	4,999847
0,046000	0,403442	4,999847
0,047000	0,429840	4,999847
0,048000	0,410004	4,999847
0,049000	0,426178	4,013672
0,050000	0,417175	4,458771
0,051000	0,423737	4,016724
0,052000	0,423737	4,841614
0,053000	0,422821	4,999847
0,054000	0,438080	4,999847
0,055000	0,424042	4,999847
0,056000	0,440979	4,999847
0,057000	0,421295	4,999847
0,058000	0,458832	4,310150
0,059000	0,429230	3,837433
0,060000	0,463867	3,091431
0,061000	0,429993	3,676453
0,062000	0,460205	4,999847
0,063000	0,438690	4,999847
0,064000	0,455322	4,999847
0,065000	0,446472	4,999847
0,066000	0,450897	4,999847
0,067000	0,453644	4,999847
0,068000	0,446625	4,999847
0,069000	0,460510	3,917694
0,070000	0,442810	2,491302
0,071000	0,468140	4,999847
0,072000	0,439301	4,946899
0,073000	0,474243	4,999847
0,074000	0,435638	4,999847
0,075000	0,477905	4,999847
0,076000	0,440826	4,999847
0,077000	0,471954	4,999847
0,078000	0,450287	4,999847
0,079000	0,465393	3,685150
0,080000	0,458984	2,116852
0,081000	0,459595	4,999847
0,082000	0,467377	4,999847
0,083000	0,454559	4,999847
0,084000	0,475311	4,999847
0,085000	0,449829	4,999847
0,086000	0,483246	4,999847
0,087000	0,446014	4,999847
0,088000	0,490723	4,999847
0,089000	0,441742	4,462128
0,090000	0,489960	4,328613
0,091000	0,452576	4,311371
0,092000	0,482330	4,419098
0,093000	0,463104	4,999847
0,094000	0,475311	4,999847
0,095000	0,473175	4,999847
0,096000	0,468292	4,999847
0,097000	0,482178	4,999847
0,098000	0,462341	4,494324
0,099000	0,490723	2,334137
0,100000	0,448608	4,018707
0,101000	0,457153	4,754944
0,102000	0,423431	4,999847
0,103000	0,494385	4,999847
0,104000	0,446625	4,999847
0,105000	0,498352	4,999847
0,106000	0,463409	4,999847
0,107000	0,492096	4,999847
0,108000	0,476532	4,999847
0,109000	0,484314	3,764648
0,110000	0,487366	2,763824
0,111000	0,477142	4,963074
0,112000	0,497894	4,557953
0,113000	0,470581	4,999847
0,114000	0,507660	4,999847
0,115000	0,464172	4,999847
0,116000	0,516663	4,999847
0,117000	0,458984	4,999847
0,118000	0,522308	4,999847
0,119000	0,464630	2,894440
0,120000	0,511780	3,021851
0,121000	0,478821	4,019470
0,122000	0,502014	4,999847
0,123000	0,490875	4,999847
0,124000	0,493164	4,999847
0,125000	0,503082	4,999847
0,126000	0,485687	4,999847
0,127000	0,513611	4,999847
0,128000	0,477753	4,999847
0,129000	0,524902	3,973999
0,130000	0,471344	4,865112
0,131000	0,534668	3,159637
0,132000	0,464935	4,884949
0,133000	0,533752	4,999847
0,134000	0,478516	4,999847
0,135000	0,522308	4,999847
0,136000	0,493164	4,999847
0,137000	0,511932	4,999847
0,138000	0,507050	4,999847
0,139000	0,502014	3,372345
0,140000	0,519714	4,824982
0,141000	0,493011	2,909241
0,142000	0,531921	4,999847
0,143000	0,485840	4,999847
0,144000	0,542603	4,999847
0,145000	0,478210	4,999847
0,146000	0,552826	4,999847
0,147000	0,476837	4,999847
0,148000	0,544891	4,999847
0,149000	0,493927	4,334717
0,150000	0,532684	4,936523
0,151000	0,509644	3,715820
0,152000	0,520782	4,999847
0,153000	0,523529	4,999847
0,154000	0,510712	4,999847
0,155000	0,537720	4,999847
0,156000	0,501709	4,999847
0,157000	0,549927	4,999847
0,158000	0,493317	4,778595
0,159000	0,561371	2,345123
0,160000	0,485535	4,360352
0,161000	0,569763	2,847443
0,162000	0,491638	4,999847
0,163000	0,555725	4,999847
0,164000	0,509186	4,999847
0,165000	0,542450	4,999847
0,166000	0,525970	4,999847
0,167000	0,530548	4,999847
0,168000	0,540924	4,924164
0,169000	0,519257	4,415741
0,170000	0,555573	2,605286
0,171000	0,509644	3,712311
0,172000	0,568237	4,905548
0,173000	0,500793	4,999847
0,174000	0,579987	4,999847
0,175000	0,492401	4,999847
0,176000	0,580750	4,999847
0,177000	0,507507	4,999847
0,178000	0,564880	4,044342
0,179000	0,525360	3,216248
0,180000	0,550842	4,125671
0,181000	0,543671	3,700562
0,182000	0,538177	4,999847
0,183000	0,558929	4,999847
0,184000	0,527954	4,999847
0,185000	0,574341	4,999847
0,186000	0,518341	4,999847
0,187000	0,587311	4,999847
0,188000	0,509033	4,999847
0,189000	0,600433	4,197998
0,190000	0,505219	3,746490
0,191000	0,591583	4,999847
0,192000	0,525665	4,017181
0,193000	0,576019	4,999847
0,194000	0,545349	4,999847
0,195000	0,561981	4,999847
0,196000	0,563354	4,999847
0,197000	0,549164	4,999847
0,198000	0,579681	4,126282
0,199000	0,537872	4,046326
0,200000	0,594940	2,410736
0,201000	0,528107	4,567108
0,202000	0,608368	4,999847
0,203000	0,493164	4,999847
0,204000	0,608673	4,999847
0,205000	0,519867	4,999847
0,206000	0,600739	4,999847
0,207000	0,545197	4,999847
0,208000	0,586395	4,999847
0,209000	0,565796	3,451233
0,210000	0,572815	3,392944
0,211000	0,583954	4,807281
0,212000	0,559692	4,999847
0,213000	0,600739	4,700165
0,214000	0,548553	4,999847
0,215000	0,615997	4,999847
0,216000	0,538635	4,999847
0,217000	0,630341	4,999847
0,218000	0,529480	4,999847
0,219000	0,632477	3,132172
0,220000	0,545807	4,104309
0,221000	0,614624	4,111481
0,222000	0,567474	4,999847
0,223000	0,598907	4,999847
0,224000	0,587463	4,999847
0,225000	0,584564	4,999847
0,226000	0,606232	4,999847
0,227000	0,572052	4,999847
0,228000	0,623016	4,536438
0,229000	0,560760	4,358368
0,230000	0,638123	3,576355
0,231000	0,550690	4,174042
0,232000	0,653229	4,999847
0,233000	0,544586	4,999847
0,234000	0,644684	4,999847
0,235000	0,568695	4,999847
0,236000	0,627441	4,999847
0,237000	0,591278	4,999847
0,238000	0,611420	4,870911
0,239000	0,610657	4,173126
0,240000	0,597687	3,443756
0,241000	0,629578	4,999847
0,242000	0,585175	4,999847
0,243000	0,646973	4,999847
0,244000	0,574341	4,999847
0,245000	0,662689	4,999847
0,246000	0,564880	4,999847
0,247000	0,676422	4,999847
0,248000	0,569611	4,999847
0,249000	0,658264	4,263763
0,250000	0,593719	4,002686
0,251000	0,641479	4,191132
0,252000	0,616150	4,999847
0,253000	0,625763	4,999847
0,254000	0,635986	4,999847
0,255000	0,612183	4,999847
0,256000	0,654449	4,999847
0,257000	0,599823	4,999847
0,258000	0,671692	4,845276
0,259000	0,589752	4,246063
0,260000	0,687408	3,755035
0,261000	0,580597	4,552917
0,262000	0,690613	4,999847
0,263000	0,595093	4,999847
0,264000	0,671844	4,999847
0,265000	0,619812	4,999847
0,266000	0,655975	4,999847
0,267000	0,642242	4,999847
0,268000	0,641327	4,370880
0,269000	0,661316	4,479065
0,270000	0,626984	3,451385
0,271000	0,678864	4,129486
0,272000	0,615692	4,943695
0,273000	0,696411	4,999847
0,274000	0,605469	4,999847
0,275000	0,712280	4,999847
0,276000	0,597687	4,999847
0,277000	0,704803	4,999847
0,278000	0,622559	4,652557
0,279000	0,686188	3,648376
0,280000	0,646362	3,500214
0,281000	0,670471	3,915710
0,282000	0,667725	4,999847
0,283000	0,656738	4,999847
0,284000	0,688934	4,999847
0,285000	0,645142	4,999847
0,286000	0,707550	4,999847
0,287000	0,633698	4,999847
0,288000	0,723724	4,876251
0,289000	0,624390	4,401703
0,290000	0,738983	3,464661
0,291000	0,627289	3,984680
0,292000	0,721893	4,999847
0,293000	0,652771	4,999847
0,294000	0,704193	4,999847
0,295000	0,676575	4,999847
0,296000	0,688629	4,999847
0,297000	0,697632	4,765930
0,298000	0,675201	4,999847
0,299000	0,716400	2,933197
0,300000	0,663147	3,207245
0,301000	0,734100	4,834747
0,302000	0,652313	4,999847
0,303000	0,750427	4,999847
0,304000	0,642700	4,999847
0,305000	0,735626	4,999847
0,306000	0,627289	4,999847
0,307000	0,724182	4,999847
0,308000	0,675201	4,933167
0,309000	0,717468	4,704285
0,310000	0,702820	3,646698
0,311000	0,704803	3,865509
0,312000	0,724335	4,999847
0,313000	0,691528	4,999847
0,314000	0,742950	4,999847
0,315000	0,679932	4,999847
0,316000	0,760956	4,999847
0,317000	0,670319	4,999847
0,318000	0,776672	4,999847
0,319000	0,660095	3,195038
0,320000	0,771637	3,227386
0,321000	0,685425	4,999847
0,322000	0,752563	4,826050
0,323000	0,709534	4,999847
0,324000	0,736084	4,999847
0,325000	0,731201	4,999847
0,326000	0,721893	4,999847
0,327000	0,751648	4,999847
0,328000	0,709381	4,999847
0,329000	0,770721	4,681854
0,330000	0,683746	3,089905
0,331000	0,768890	4,846344
0,332000	0,671234	4,999847
0,333000	0,780487	4,999847
0,334000	0,668182	4,999847
0,335000	0,762024	4,999847
0,336000	0,691376	4,999847
0,337000	0,744019	4,999847
0,338000	0,714111	4,999847
0,339000	0,727692	3,083801
0,340000	0,733948	4,765320
0,341000	0,714569	4,252319
0,342000	0,754547	4,999847
0,343000	0,706635	4,999847
0,344000	0,780029	4,999847
0,345000	0,699463	4,999847
0,346000	0,794220	4,999847
0,347000	0,689087	4,999847
0,348000	0,799408	4,999847
0,349000	0,700073	3,952332
0,350000	0,782166	3,816376
0,351000	0,724030	3,711090
0,352000	0,764008	4,994659
0,353000	0,745697	4,999847
0,354000	0,749054	4,999847
0,355000	0,766907	4,999847
0,356000	0,735779	4,999847
0,357000	0,780029	4,999847
0,358000	0,718842	4,767914
0,359000	0,795135	2,927246
0,360000	0,708008	4,094696
0,361000	0,812073	2,829437
0,362000	0,700378	4,880524
0,363000	0,810242	4,999847
0,364000	0,723572	4,999847
0,365000	0,794067	4,999847
0,366000	0,748749	4,999847
0,367000	0,777435	4,999847
0,368000	0,766449	4,999847
0,369000	0,787506	4,505157
0,370000	0,813446	3,247681
0,371000	0,773468	3,410492
0,372000	0,832062	4,999847
0,373000	0,761414	4,999847
0,374000	0,849915	4,999847
0,375000	0,750885	4,999847
0,376000	0,867004	4,999847
0,377000	0,748444	4,999847
0,378000	0,854645	4,277802
0,379000	0,739441	3,125763
0,380000	0,797577	3,033752
0,381000	0,762329	4,991608
0,382000	0,782623	4,999847
0,383000	0,782623	4,999847
0,384000	0,767822	4,999847
0,385000	0,727997	4,999847
0,386000	0,738068	4,999847
0,387000	0,742340	4,999847
0,388000	0,744324	4,999847
0,389000	0,771332	4,070587
0,390000	0,818176	3,660889
0,391000	0,769958	3,981323
0,392000	0,785828	4,392853
0,393000	0,785675	4,999847
0,394000	0,769501	4,999847
0,395000	0,803223	4,999847
0,396000	0,755768	4,999847
0,397000	0,821381	4,999847
0,398000	0,744324	4,999847
0,399000	0,837250	3,461761
0,400000	0,733490	3,770142
0,401000	0,846710	4,506836
0,402000	0,743256	4,999847
0,403000	0,829163	4,999847
0,404000	0,767212	4,999847
0,405000	0,812988	4,999847
0,406000	0,788879	4,999847
0,407000	0,797882	4,999847
0,408000	0,777435	4,999847
0,409000	0,766754	4,284668
0,410000	0,819702	3,154297
0,411000	0,766296	4,672089
0,412000	0,843811	4,749298
0,413000	0,757141	4,999847
0,414000	0,860443	4,999847
0,415000	0,746460	4,999847
0,416000	0,855865	4,999847
0,417000	0,765991	4,999847
0,418000	0,836792	4,311981
0,419000	0,788727	3,602753
0,420000	0,819855	3,471527
0,421000	0,809631	4,361267
0,422000	0,804596	4,999847
0,423000	0,829773	4,999847
0,424000	0,789948	4,999847
0,425000	0,847778	4,999847
0,426000	0,776672	4,999847
0,427000	0,863342	4,999847
0,428000	0,764313	4,999847
0,429000	0,874329	4,766083
0,430000	0,759430	3,247070
0,431000	0,856171	4,396362
0,432000	0,743256	4,568481
0,433000	0,688782	4,999847
0,434000	0,664368	4,999847
0,435000	0,652924	4,999847
0,436000	0,648193	4,999847
0,437000	0,645294	4,999847
0,438000	0,644226	3,977814
0,439000	0,643463	3,852081
0,440000	0,643158	3,500824
0,441000	0,643311	3,073578
0,442000	0,642853	4,999847
0,443000	0,643005	4,999847
0,444000	0,643005	4,999847
0,445000	0,642853	4,999847
0,446000	0,643005	4,999847
0,447000	0,643311	4,999847
0,448000	0,642853	4,999847
0,449000	0,642853	4,822693
0,450000	0,642853	4,351196
0,451000	0,642853	2,502441
0,452000	0,579071	4,999847
0,453000	0,482788	4,907532
0,454000	0,434113	4,999847
0,455000	0,414276	4,999847
0,456000	0,406952	4,999847
0,457000	0,398712	4,999847
0,458000	0,403442	4,626770
0,459000	0,394592	3,571777
0,460000	0,405426	3,887634
0,461000	0,392914	3,389587
0,462000	0,408630	4,999847
0,463000	0,391388	4,999847
0,464000	0,410004	4,999847
0,465000	0,394897	4,999847
0,466000	0,407562	4,999847
0,467000	0,399628	4,999847
0,468000	0,405731	4,999847
0,469000	0,403900	4,635925
0,470000	0,403595	3,437347
0,471000	0,408783	4,735107
0,472000	0,401917	3,453827
0,473000	0,412903	4,999847
0,474000	0,399933	4,999847
0,475000	0,417328	4,999847
0,476000	0,398407	4,999847
0,477000	0,421600	4,999847
0,478000	0,397644	4,999847
0,479000	0,420685	2,992249
0,480000	0,404053	3,044739
0,481000	0,417938	2,900391
0,482000	0,410156	4,999847
0,483000	0,415039	4,999847
0,484000	0,415649	4,999847
0,485000	0,412445	4,999847
0,486000	0,420685	4,999847
0,487000	0,410309	4,999847
0,488000	0,427399	4,958191
0,489000	0,409393	4,772491
0,490000	0,438538	3,680878
0,491000	0,412750	2,855682
0,492000	0,444183	4,999847
0,493000	0,414734	4,999847
0,494000	0,444336	4,999847
0,495000	0,435181	4,999847
0,496000	0,449829	4,999847
0,497000	0,442505	4,999847
0,498000	0,446167	4,864197
0,499000	0,449677	4,074707
0,500000	0,442352	2,785339
0,501000	0,456696	4,759521
0,502000	0,438843	4,999847
0,503000	0,463104	4,999847
0,504000	0,435638	4,999847
0,505000	0,469360	4,999847
0,506000	0,432739	4,999847
0,507000	0,471649	4,999847
0,508000	0,438385	4,586334
0,509000	0,465698	3,854675
0,510000	0,419006	2,740173
0,511000	0,421143	4,403687
0,512000	0,437927	4,999847
0,513000	0,447083	4,722595
0,514000	0,459290	4,999847
0,515000	0,448761	4,999847
0,516000	0,469971	4,999847
0,517000	0,445709	4,999847
0,518000	0,478058	4,563141
0,519000	0,441589	3,539429
0,520000	0,485077	3,488770
0,521000	0,439148	3,881531
0,522000	0,483093	4,999847
0,523000	0,449524	4,999847
0,524000	0,476379	4,999847
0,525000	0,459290	4,999847
0,526000	0,469818	4,999847
0,527000	0,468903	4,999847
0,528000	0,463562	4,999847
0,529000	0,477905	4,563293
0,530000	0,458527	2,552185
0,531000	0,486450	4,464874
0,532000	0,453339	4,512482
0,533000	0,493927	4,999847
0,534000	0,448608	4,999847
0,535000	0,501709	4,999847
0,536000	0,449677	4,999847
0,537000	0,494537	4,862061
0,538000	0,462189	4,961243
0,539000	0,485840	3,972931
0,540000	0,473022	2,308655
0,541000	0,478821	4,999847
0,542000	0,482941	4,999847
0,543000	0,471954	4,999847
0,544000	0,493011	4,999847
0,545000	0,465698	4,999847
0,546000	0,502930	4,999847
0,547000	0,460510	4,999847
0,548000	0,511322	4,999847
0,549000	0,455170	4,054871
0,550000	0,515900	3,743896
0,551000	0,462799	2,905121
0,552000	0,505676	3,612518
0,553000	0,475769	4,999847
0,554000	0,496216	4,999847
0,555000	0,487366	4,999847
0,556000	0,487976	4,999847
0,557000	0,498810	4,999847
0,558000	0,480499	4,840240
0,559000	0,509338	2,920685
0,560000	0,473328	3,661652
0,561000	0,519104	3,526611
0,562000	0,466919	4,999847
0,563000	0,528717	4,999847
0,564000	0,461426	4,999847
0,565000	0,526581	4,999847
0,566000	0,476074	4,999847
0,567000	0,515747	4,999847
0,568000	0,489807	4,999847
0,569000	0,505829	3,701782
0,570000	0,502625	3,976135
0,571000	0,496979	3,981018
0,572000	0,514984	4,403992
0,573000	0,488129	4,824219
0,574000	0,526428	4,999847
0,575000	0,480957	4,999847
0,576000	0,537109	4,999847
0,577000	0,473938	4,999847
0,578000	0,547028	4,668121
0,579000	0,474243	3,032990
0,580000	0,537415	3,289642
0,581000	0,490570	4,935760
0,582000	0,525818	4,999847
0,583000	0,505219	4,999847
0,584000	0,514832	4,999847
0,585000	0,519409	4,999847
0,586000	0,504913	4,999847
0,587000	0,532074	4,999847
0,588000	0,496216	4,999847
0,589000	0,544128	4,183807
0,590000	0,488434	3,848419
0,591000	0,555573	3,827057
0,592000	0,481110	4,999847
0,593000	0,562592	4,999847
0,594000	0,489502	4,999847
0,595000	0,548401	4,999847
0,596000	0,506592	4,999847
0,597000	0,535736	4,999847
0,598000	0,522308	4,669189
0,599000	0,524597	3,608856
0,600000	0,536957	3,808441
0,601000	0,513916	4,595490
0,602000	0,550537	4,702911
0,603000	0,504456	4,999847
0,604000	0,563354	4,999847
0,605000	0,496063	4,999847
0,606000	0,574951	4,999847
0,607000	0,487823	4,999847
0,608000	0,573273	4,841614
0,609000	0,505066	4,107819
0,610000	0,558472	3,632050
0,611000	0,523529	4,518433
0,612000	0,536194	4,868317
0,613000	0,506287	4,999847
0,614000	0,517426	4,999847
0,615000	0,548248	4,999847
0,616000	0,519562	4,999847
0,617000	0,568085	4,999847
0,618000	0,511932	4,898071
0,619000	0,581970	2,768555
0,620000	0,503998	2,894135
0,621000	0,594788	4,702759
0,622000	0,502625	4,999847
0,623000	0,583954	4,999847
0,624000	0,522919	4,999847
0,625000	0,568695	4,999847
0,626000	0,541687	4,999847
0,627000	0,555115	4,999847
0,628000	0,558472	4,999847
0,629000	0,542755	4,269104
0,630000	0,574341	3,018799
0,631000	0,531464	3,698273
0,632000	0,589142	4,999847
0,633000	0,521545	4,999847
0,634000	0,602722	4,999847
0,635000	0,513000	4,999847
0,636000	0,612030	4,999847
0,637000	0,520935	4,999847
0,638000	0,594940	4,912262
0,639000	0,542145	3,782806
0,640000	0,579834	2,583313
0,641000	0,561218	4,528351
0,642000	0,565186	4,777374
0,643000	0,578461	4,999847
0,644000	0,552673	4,999847
0,645000	0,595093	4,999847
0,646000	0,541992	4,999847
0,647000	0,610352	4,999847
0,648000	0,532379	4,999847
0,649000	0,624237	4,007416
0,650000	0,523529	2,932739
0,651000	0,624084	4,431152
0,652000	0,541077	4,831696
0,653000	0,606384	4,999847
0,654000	0,562897	4,999847
0,655000	0,591125	4,999847
0,656000	0,582123	4,999847
0,657000	0,576630	4,999847
0,658000	0,600433	4,445648
0,659000	0,564423	3,713684
0,660000	0,616913	2,958984
0,661000	0,553589	4,888458
0,662000	0,632477	4,999847
0,663000	0,543518	4,999847
0,664000	0,646515	4,999847
0,665000	0,540009	4,999847
0,666000	0,636139	4,999847
0,667000	0,563965	4,999847
0,668000	0,618744	4,999847
0,669000	0,585937	4,644928
0,670000	0,603638	3,371124
0,671000	0,605621	3,858032
0,672000	0,589752	4,873962
0,673000	0,623779	4,911957
0,674000	0,577545	4,999847
0,675000	0,640717	4,999847
0,676000	0,566711	4,999847
0,677000	0,655823	4,999847
0,678000	0,556946	4,999847
0,679000	0,668335	3,958740
0,680000	0,565033	4,053192
0,681000	0,649414	3,760071
0,682000	0,588074	4,999847
0,683000	0,632324	4,999847
0,684000	0,610199	4,999847
0,685000	0,617371	4,999847
0,686000	0,630341	4,999847
0,687000	0,604095	4,999847
0,688000	0,648499	4,766388
0,689000	0,592041	4,115753
0,690000	0,665283	3,030090
0,691000	0,581512	4,278717
0,692000	0,680695	4,341888
0,693000	0,572052	4,999847
