LabVIEW Measurement	
Writer_Version	2
Reader_Version	2
Separator	Tab
Decimal_Separator	,
Multi_Headings	Yes
X_Columns	One
Time_Pref	Absolute
Operator	d.nicolai
Date	2023/11/09
Time	16:04:05,6565121999996605588
***End_of_Header***	
	
Channels	2		
Samples	1000	1000	
Date	2023/11/09	2023/11/09	
Time	16:04:17,3385144999998252162	16:04:17,3385144999998252162	
Y_Unit_Label	Volts	Volts	
X_Dimension	Time	Time	
X0	0,0000000000000000E+0	0,0000000000000000E+0	
Delta_X	0,001000	0,001000	
***End_of_Header***			
X_Value	powebox	triggerbox	Comment
0,000000	0,804901	0,931091
0,001000	0,769043	3,916779
0,002000	0,828094	4,999847
0,003000	0,764771	4,999847
0,004000	0,850220	4,999847
0,005000	0,757294	4,999847
0,006000	0,867767	4,999847
0,007000	0,750885	4,999847
0,008000	0,857849	4,999847
0,009000	0,775299	4,769745
0,010000	0,840149	3,143311
0,011000	0,798340	4,629669
0,012000	0,823669	3,661041
0,013000	0,819855	4,999847
0,014000	0,807953	4,999847
0,015000	0,839691	4,999847
0,016000	0,793762	4,999847
0,017000	0,858765	4,999847
0,018000	0,780640	3,947449
0,019000	0,873871	3,206635
0,020000	0,767975	1,779633
0,021000	0,883636	3,502808
0,022000	0,771332	4,999847
0,023000	0,861664	4,999847
0,024000	0,795135	4,999847
0,025000	0,843353	4,999847
0,026000	0,817566	4,999847
0,027000	0,827332	4,999847
0,028000	0,731506	4,582520
0,029000	0,687103	4,309845
0,030000	0,667267	4,355164
0,031000	0,657654	3,256836
0,032000	0,653687	4,330444
0,033000	0,651398	4,999847
0,034000	0,650482	4,999847
0,035000	0,650177	4,999847
0,036000	0,650330	4,999847
0,037000	0,650024	4,999847
0,038000	0,649872	3,984833
0,039000	0,650482	3,750305
0,040000	0,649567	4,725647
0,041000	0,649567	3,618164
0,042000	0,649567	4,463959
0,043000	0,649261	4,999847
0,044000	0,649109	4,999847
0,045000	0,647278	4,999847
0,046000	0,648346	4,999847
0,047000	0,635834	4,999847
0,048000	0,643158	4,999847
0,049000	0,623474	3,795776
0,050000	0,511475	4,112244
0,051000	0,440979	2,535858
0,052000	0,426331	3,466949
0,053000	0,405579	4,999847
0,054000	0,406952	4,999847
0,055000	0,401306	4,999847
0,056000	0,402679	4,999847
0,057000	0,403748	4,999847
0,058000	0,401001	4,835358
0,059000	0,407410	2,963715
0,060000	0,399475	4,369507
0,061000	0,411072	4,111633
0,062000	0,397797	4,863281
0,063000	0,413208	4,999847
0,064000	0,395966	4,999847
0,065000	0,416107	4,999847
0,066000	0,399017	4,999847
0,067000	0,413818	4,999847
0,068000	0,404205	4,582672
0,069000	0,411682	4,450684
0,070000	0,409393	3,403778
0,071000	0,407104	4,766388
0,072000	0,412750	3,487854
0,073000	0,406952	4,999847
0,074000	0,417938	4,999847
0,075000	0,404663	4,999847
0,076000	0,422363	4,999847
0,077000	0,402985	4,999847
0,078000	0,426331	4,621277
0,079000	0,400696	3,738251
0,080000	0,426178	3,063202
0,081000	0,406494	4,999847
0,082000	0,423126	4,999847
0,083000	0,413055	4,999847
0,084000	0,419617	4,999847
0,085000	0,418549	4,999847
0,086000	0,415955	4,999847
0,087000	0,424194	4,999847
0,088000	0,413513	4,999847
0,089000	0,430298	3,525696
0,090000	0,410919	3,769379
0,091000	0,435181	2,822113
0,092000	0,408630	3,701782
0,093000	0,440674	4,999847
0,094000	0,408936	4,999847
0,095000	0,437469	4,999847
0,096000	0,416412	4,999847
0,097000	0,432892	4,999847
0,098000	0,423889	4,439545
0,099000	0,429077	4,105835
0,100000	0,432434	3,576813
0,101000	0,426483	2,738342
0,102000	0,439301	4,999847
0,103000	0,422363	4,999847
0,104000	0,445557	4,999847
0,105000	0,419312	4,999847
0,106000	0,452271	4,999847
0,107000	0,416412	4,999847
0,108000	0,456085	4,999847
0,109000	0,420837	4,381866
0,110000	0,449677	2,888641
0,111000	0,429382	4,885254
0,112000	0,444183	3,002167
0,113000	0,437775	4,999847
0,114000	0,436707	4,999847
0,115000	0,444489	4,999847
0,116000	0,434265	4,999847
0,117000	0,453186	4,999847
0,118000	0,430450	4,925079
0,119000	0,460052	2,984467
0,120000	0,425720	3,607483
0,121000	0,467072	3,862305
0,122000	0,422211	4,999847
0,123000	0,467377	4,999847
0,124000	0,431366	4,999847
0,125000	0,460205	4,999847
0,126000	0,441437	4,999847
0,127000	0,453186	4,999847
0,128000	0,450897	4,432068
0,129000	0,447235	4,485626
0,130000	0,459595	2,352753
0,131000	0,442200	3,873901
0,132000	0,467834	3,457642
0,133000	0,436554	4,999847
0,134000	0,475616	4,999847
0,135000	0,432587	4,999847
0,136000	0,483551	4,999847
0,137000	0,431976	4,999847
0,138000	0,477753	4,447021
0,139000	0,443420	3,268280
0,140000	0,469971	3,581543
0,141000	0,452576	3,407440
0,142000	0,461273	4,999847
0,143000	0,464172	4,999847
0,144000	0,455170	4,999847
0,145000	0,474396	4,999847
0,146000	0,449829	4,999847
0,147000	0,483704	4,999847
0,148000	0,443878	4,613953
0,149000	0,466003	4,070892
0,150000	0,415497	4,114380
0,151000	0,487976	3,540039
0,152000	0,439301	4,118958
0,153000	0,486603	4,891510
0,154000	0,455933	4,999847
0,155000	0,478973	4,999847
0,156000	0,468445	4,999847
0,157000	0,471344	4,999847
0,158000	0,479584	4,179840
0,159000	0,463715	3,582764
0,160000	0,490875	4,139404
0,161000	0,457153	3,695984
0,162000	0,500336	4,771271
0,163000	0,450745	4,999847
0,164000	0,509644	4,999847
0,165000	0,445251	4,999847
0,166000	0,509949	4,999847
0,167000	0,456848	4,999847
0,168000	0,499268	4,943390
0,169000	0,471191	4,285431
0,170000	0,489502	2,561035
0,171000	0,484314	4,860077
0,172000	0,480347	3,839569
0,173000	0,496521	4,999847
0,174000	0,472260	4,999847
0,175000	0,507812	4,999847
0,176000	0,464630	4,999847
0,177000	0,518036	4,999847
0,178000	0,458069	4,802551
0,179000	0,528564	3,538055
0,180000	0,456238	2,494202
0,181000	0,522003	4,697266
0,182000	0,474243	4,999847
0,183000	0,528717	4,999847
0,184000	0,505066	4,999847
0,185000	0,518799	4,999847
0,186000	0,520935	4,999847
0,187000	0,508881	4,999847
0,188000	0,534363	4,635620
0,189000	0,500183	4,290619
0,190000	0,547180	3,171692
0,191000	0,491943	3,363647
0,192000	0,558167	3,405762
0,193000	0,484467	4,999847
0,194000	0,567932	4,999847
0,195000	0,489655	4,999847
0,196000	0,553894	4,999847
0,197000	0,507355	4,951782
0,198000	0,540009	4,375458
0,199000	0,523682	4,058990
0,200000	0,528717	2,544708
0,201000	0,538635	4,492493
0,202000	0,517578	4,560852
0,203000	0,552521	4,999847
0,204000	0,508423	4,999847
0,205000	0,565643	4,999847
0,206000	0,499878	4,999847
0,207000	0,577698	4,999847
0,208000	0,491638	4,999847
0,209000	0,579376	4,463501
0,210000	0,506134	4,794769
0,211000	0,564423	3,351288
0,212000	0,524292	3,803864
0,213000	0,550232	4,999847
0,214000	0,541534	4,999847
0,215000	0,538025	4,999847
0,216000	0,557098	4,999847
0,217000	0,527039	4,999847
0,218000	0,571442	4,995880
0,219000	0,516815	3,103180
0,220000	0,585175	4,254150
0,221000	0,507965	4,999847
0,222000	0,597687	4,999847
0,223000	0,502930	4,999847
0,224000	0,589905	4,999847
0,225000	0,523529	4,999847
0,226000	0,574188	4,999847
0,227000	0,542908	4,999847
0,228000	0,560150	4,982910
0,229000	0,560150	4,577026
0,230000	0,547333	3,726044
0,231000	0,576630	4,999847
0,232000	0,536194	3,921356
0,233000	0,591888	4,999847
0,234000	0,525818	4,999847
0,235000	0,605927	4,999847
0,236000	0,517273	4,999847
0,237000	0,618134	4,999847
0,238000	0,522003	4,849091
0,239000	0,601196	2,549286
0,240000	0,542908	2,892761
0,241000	0,584869	3,050537
0,242000	0,562897	4,999847
0,243000	0,570831	4,999847
0,244000	0,580597	4,999847
0,245000	0,558319	4,999847
0,246000	0,597382	4,999847
0,247000	0,547028	4,999847
0,248000	0,612793	4,999847
0,249000	0,536652	3,713989
0,250000	0,627594	3,743134
0,251000	0,519257	3,912354
0,252000	0,600586	4,075775
0,253000	0,529327	4,999847
0,254000	0,606689	4,999847
0,255000	0,561829	4,999847
0,256000	0,595703	4,999847
0,257000	0,583954	4,999847
0,258000	0,581818	4,220734
0,259000	0,602570	3,233643
0,260000	0,569916	3,008575
0,261000	0,619965	4,756012
0,262000	0,558472	4,261017
0,263000	0,635071	4,999847
0,264000	0,548553	4,999847
0,265000	0,650024	4,999847
0,266000	0,541840	4,999847
0,267000	0,642853	4,999847
0,268000	0,565186	4,788971
0,269000	0,625610	3,714447
0,270000	0,587769	4,218750
0,271000	0,610199	4,246674
0,272000	0,608063	3,917084
0,273000	0,595856	4,999847
0,274000	0,626678	4,999847
0,275000	0,583496	4,999847
0,276000	0,643768	4,999847
0,277000	0,572205	4,999847
0,278000	0,656128	4,961090
0,279000	0,560760	2,796173
0,280000	0,672913	3,899536
0,281000	0,565948	4,608917
0,282000	0,655823	4,991150
0,283000	0,589905	4,999847
0,284000	0,639191	4,999847
0,285000	0,612335	4,999847
0,286000	0,623474	4,999847
0,287000	0,632782	4,999847
0,288000	0,609741	4,512787
0,289000	0,651398	4,141388
0,290000	0,598450	4,283752
0,291000	0,668640	3,844604
0,292000	0,587311	4,044342
0,293000	0,684357	4,999847
0,294000	0,578461	4,999847
0,295000	0,690002	4,999847
0,296000	0,593109	4,999847
0,297000	0,671082	4,999847
0,298000	0,616608	3,965607
0,299000	0,654144	3,747559
0,300000	0,639038	3,887024
0,301000	0,639191	4,694214
0,302000	0,658722	4,999847
0,303000	0,625763	4,999847
0,304000	0,677490	4,999847
0,305000	0,614624	4,999847
0,306000	0,694122	4,999847
0,307000	0,604248	4,999847
0,308000	0,710144	4,296265
0,309000	0,595856	4,103851
0,310000	0,704498	3,630676
0,311000	0,620422	3,927917
0,312000	0,686188	3,776093
0,313000	0,644379	4,999847
0,314000	0,669708	4,999847
0,315000	0,665894	4,999847
0,316000	0,655365	4,999847
0,317000	0,685272	4,999847
0,318000	0,643005	3,784790
0,319000	0,703888	3,581848
0,320000	0,631409	4,739532
0,321000	0,718842	2,767792
0,322000	0,621033	4,919281
0,323000	0,735474	4,999847
0,324000	0,623016	4,999847
0,325000	0,719757	4,999847
0,326000	0,648804	4,999847
0,327000	0,702057	4,999847
0,328000	0,672607	4,962921
0,329000	0,686493	3,582306
0,330000	0,693665	3,831940
0,331000	0,672607	4,184570
0,332000	0,713043	4,462280
0,333000	0,660248	4,999847
0,334000	0,730743	4,999847
0,335000	0,650024	4,999847
0,336000	0,746765	4,999847
0,337000	0,640411	4,999847
0,338000	0,755157	4,061890
0,339000	0,652618	3,540649
0,340000	0,735321	2,659149
0,341000	0,677643	4,044800
0,342000	0,718536	4,605408
0,343000	0,700531	4,999847
0,344000	0,703278	4,999847
0,345000	0,720978	4,999847
0,346000	0,690155	4,999847
0,347000	0,739899	4,999847
0,348000	0,677948	4,985809
0,349000	0,757599	4,712982
0,350000	0,667725	3,617706
0,351000	0,773468	3,383179
0,352000	0,657654	3,555450
0,353000	0,770111	4,999847
0,354000	0,651398	4,999847
0,355000	0,726624	4,999847
0,356000	0,694733	4,999847
0,357000	0,729828	4,999847
0,358000	0,725861	4,355621
0,359000	0,718842	3,769226
0,360000	0,748291	3,368073
0,361000	0,706787	4,944153
0,362000	0,766754	4,999847
0,363000	0,695343	4,999847
0,364000	0,784149	4,999847
0,365000	0,685577	4,999847
0,366000	0,799408	4,999847
0,367000	0,684662	4,999847
0,368000	0,785370	4,999847
0,369000	0,710907	3,983307
0,370000	0,767365	4,660797
0,371000	0,734711	3,041382
0,372000	0,751038	4,999847
0,373000	0,755768	4,999847
0,374000	0,736694	4,999847
0,375000	0,775909	4,999847
0,376000	0,724182	4,999847
0,377000	0,793915	4,999847
0,378000	0,713043	4,235077
0,379000	0,810547	3,895569
0,380000	0,703278	3,765869
0,381000	0,820618	3,528900
0,382000	0,713654	4,896851
0,383000	0,800476	4,999847
0,384000	0,738983	4,999847
0,385000	0,782776	4,999847
0,386000	0,762177	4,999847
0,387000	0,767365	4,999847
0,388000	0,783539	4,999847
0,389000	0,753632	4,957886
0,390000	0,802765	3,521576
0,391000	0,741882	4,148407
0,392000	0,820160	4,051514
0,393000	0,730286	4,999847
0,394000	0,836182	4,999847
0,395000	0,720978	4,999847
0,396000	0,836487	4,999847
0,397000	0,742798	4,999847
0,398000	0,817566	3,910065
0,399000	0,767517	3,740997
0,400000	0,800171	3,407745
0,401000	0,789795	4,695740
0,402000	0,784912	4,994354
0,403000	0,810242	4,999847
0,404000	0,771637	4,999847
0,405000	0,829163	4,999847
0,406000	0,759735	4,999847
0,407000	0,847321	4,999847
0,408000	0,749512	4,999847
0,409000	0,864410	3,893585
0,410000	0,745850	4,363251
0,411000	0,853577	4,123230
0,412000	0,771790	4,999847
0,413000	0,834808	4,999084
0,414000	0,794983	4,999847
0,415000	0,818634	4,999847
0,416000	0,817413	4,999847
0,417000	0,803528	4,999847
0,418000	0,837250	4,248352
0,419000	0,789948	3,650208
0,420000	0,765839	4,999847
0,421000	0,775146	3,320465
0,422000	0,778198	4,999847
0,423000	0,780182	4,999847
0,424000	0,781097	4,999847
0,425000	0,781708	4,999847
0,426000	0,781403	4,999847
0,427000	0,781708	4,999847
0,428000	0,783386	4,999847
0,429000	0,889130	4,575958
0,430000	0,789185	4,121857
0,431000	0,860901	3,085480
0,432000	0,808411	3,753510
0,433000	0,804291	4,205627
0,434000	0,793457	4,999847
0,435000	0,789948	4,999847
0,436000	0,813904	4,999847
0,437000	0,776367	4,999847
0,438000	0,833740	4,977417
0,439000	0,764313	3,043060
0,440000	0,851898	2,344666
0,441000	0,753784	4,999847
0,442000	0,868378	4,420166
0,443000	0,752869	4,999847
0,444000	0,853729	4,999847
0,445000	0,777130	4,999847
0,446000	0,836487	4,999847
0,447000	0,799713	4,999847
0,448000	0,821075	4,999847
0,449000	0,821991	3,892975
0,450000	0,807037	3,744049
0,451000	0,842743	4,576416
0,452000	0,793152	4,057922
0,453000	0,863190	4,458771
0,454000	0,768890	4,999847
0,455000	0,865631	4,999847
0,456000	0,744171	4,999847
0,457000	0,860596	4,999847
0,458000	0,761566	4,999847
0,459000	0,848846	3,773956
0,460000	0,788422	2,969055
0,461000	0,832367	4,477386
0,462000	0,811005	4,999847
0,463000	0,816040	4,999847
0,464000	0,830994	4,999847
0,465000	0,801392	4,999847
0,466000	0,850372	4,999847
0,467000	0,786896	4,999847
0,468000	0,867004	4,999847
0,469000	0,774231	4,101715
0,470000	0,878754	3,705597
0,471000	0,762482	3,836823
0,472000	0,699310	4,909668
0,473000	0,670319	4,999847
0,474000	0,657501	4,999847
0,475000	0,651703	4,999847
0,476000	0,648804	4,999847
0,477000	0,647278	4,999847
0,478000	0,646362	4,999847
0,479000	0,645905	2,661591
0,480000	0,645752	3,849487
0,481000	0,645905	3,823700
0,482000	0,646057	4,893646
0,483000	0,645599	4,999847
0,484000	0,645599	4,999847
0,485000	0,645599	4,999847
0,486000	0,638275	4,999847
0,487000	0,516052	4,999847
0,488000	0,441895	4,999847
0,489000	0,428467	3,965302
0,490000	0,403748	4,465637
0,491000	0,408478	3,030701
0,492000	0,398407	4,192657
0,493000	0,402222	4,999847
0,494000	0,400085	4,999847
0,495000	0,400238	4,999847
0,496000	0,403595	4,999847
0,497000	0,398407	4,999847
0,498000	0,407410	4,813385
0,499000	0,397186	2,487030
0,500000	0,410767	3,320770
0,501000	0,395660	4,550629
0,502000	0,413971	4,999847
0,503000	0,394440	4,999847
0,504000	0,414429	4,999847
0,505000	0,399628	4,999847
0,506000	0,411835	4,999847
0,507000	0,404968	4,999847
0,508000	0,409698	4,999847
0,509000	0,409698	4,354095
0,510000	0,407562	4,050598
0,511000	0,414581	4,839783
0,512000	0,405121	4,566498
0,513000	0,418854	4,999847
0,514000	0,403442	4,999847
0,515000	0,423737	4,999847
0,516000	0,401154	4,999847
0,517000	0,425873	4,999847
0,518000	0,401459	4,999847
0,519000	0,424500	3,430328
0,520000	0,408630	2,911377
0,521000	0,421295	4,100952
0,522000	0,414581	4,999847
0,523000	0,418091	4,999847
0,524000	0,420990	4,999847
0,525000	0,414886	4,999847
0,526000	0,426483	4,999847
0,527000	0,412140	4,999847
0,528000	0,432281	4,999847
0,529000	0,409698	3,936768
0,530000	0,437469	4,814453
0,531000	0,407410	3,123779
0,532000	0,440369	4,657745
0,533000	0,411530	4,999847
0,534000	0,435638	4,999847
0,535000	0,419617	4,999847
0,536000	0,431366	4,999847
0,537000	0,426788	4,999847
0,538000	0,426941	4,600983
0,539000	0,433807	3,267670
0,540000	0,423279	2,010651
0,541000	0,440521	4,228668
0,542000	0,419617	4,999847
0,543000	0,446472	4,999847
0,544000	0,416107	4,999847
0,545000	0,452881	4,999847
0,546000	0,413361	4,999847
0,547000	0,451813	4,999847
0,548000	0,421600	4,999847
0,549000	0,445862	4,041138
0,550000	0,430908	2,707977
0,551000	0,440521	3,527069
0,552000	0,438690	4,999847
0,553000	0,434875	4,999847
0,554000	0,446930	4,999847
0,555000	0,430756	4,999847
0,556000	0,454407	4,999847
0,557000	0,426483	4,999847
0,558000	0,461426	4,153290
0,559000	0,388794	2,740631
0,560000	0,435944	3,495178
0,561000	0,408630	4,042816
0,562000	0,456085	4,999847
0,563000	0,430145	4,999847
0,564000	0,454407	4,999847
0,565000	0,442657	4,999847
0,566000	0,449066	4,999847
0,567000	0,452423	4,999847
0,568000	0,443268	4,999847
0,569000	0,460968	3,617706
0,570000	0,438232	2,570496
0,571000	0,469666	3,342285
0,572000	0,433197	4,866180
0,573000	0,477295	4,999847
0,574000	0,428772	4,999847
0,575000	0,481873	4,999847
0,576000	0,434723	4,999847
0,577000	0,473175	4,999847
0,578000	0,445862	3,973694
0,579000	0,465088	3,160706
0,580000	0,456848	2,540283
0,581000	0,458069	4,735107
0,582000	0,466766	4,999847
0,583000	0,451508	4,999847
0,584000	0,476532	4,999847
0,585000	0,445557	4,999847
0,586000	0,485382	4,999847
0,587000	0,440063	4,999847
0,588000	0,493622	4,772949
0,589000	0,435028	4,420319
0,590000	0,493164	4,707184
0,591000	0,447235	2,897339
0,592000	0,483246	4,381714
0,593000	0,459137	4,999847
0,594000	0,474396	4,999847
0,595000	0,471039	4,999847
0,596000	0,466461	4,999847
0,597000	0,482178	4,999847
0,598000	0,458832	4,235687
0,599000	0,492401	2,908783
0,600000	0,452576	2,804871
0,601000	0,502167	4,797974
0,602000	0,446320	4,999847
0,603000	0,511017	4,999847
0,604000	0,445709	4,999847
0,605000	0,503540	4,999847
0,606000	0,460358	4,999847
0,607000	0,493164	4,999847
0,608000	0,474091	4,999847
0,609000	0,483551	4,473724
0,610000	0,486908	3,125458
0,611000	0,472565	3,084869
0,612000	0,496979	4,999847
0,613000	0,466156	4,999847
0,614000	0,509186	4,999847
0,615000	0,459747	4,999847
0,616000	0,519867	4,999847
0,617000	0,453186	4,879761
0,618000	0,526581	4,676208
0,619000	0,459595	3,526917
0,620000	0,514832	2,615509
0,621000	0,475922	4,770203
0,622000	0,504456	4,999847
0,623000	0,510864	4,999847
0,624000	0,513763	4,999847
0,625000	0,524750	4,999847
0,626000	0,503845	4,999847
0,627000	0,537262	4,999847
0,628000	0,494537	4,999847
0,629000	0,549164	4,595490
0,630000	0,486603	4,580536
0,631000	0,561066	3,535004
0,632000	0,479584	4,999847
0,633000	0,560455	4,999847
0,634000	0,494537	4,999847
0,635000	0,546875	4,999847
0,636000	0,511475	4,999847
0,637000	0,534058	4,999847
0,638000	0,527191	4,946899
0,639000	0,522461	3,798828
0,640000	0,541992	2,082367
0,641000	0,512085	4,047699
0,642000	0,555725	4,999847
0,643000	0,502625	4,999847
0,644000	0,568237	4,999847
0,645000	0,494690	4,999847
0,646000	0,579681	4,999847
0,647000	0,491791	4,999847
0,648000	0,571442	4,689178
0,649000	0,511017	4,319305
0,650000	0,556946	4,509888
0,651000	0,529022	3,585358
0,652000	0,543213	4,999847
0,653000	0,542908	4,999847
0,654000	0,529785	4,999847
0,655000	0,560150	4,999847
0,656000	0,520782	4,999847
0,657000	0,574646	4,605255
0,658000	0,511322	4,734039
0,659000	0,587463	3,601227
0,660000	0,502625	2,994080
0,661000	0,570221	4,999847
0,662000	0,482330	4,999847
0,663000	0,569305	4,999847
0,664000	0,523376	4,999847
0,665000	0,564423	4,999847
0,666000	0,546570	4,999847
0,667000	0,552521	4,999847
0,668000	0,564575	4,594879
0,669000	0,540924	4,028931
0,670000	0,580139	4,278717
0,671000	0,530243	3,642578
0,672000	0,594940	4,056549
0,673000	0,520935	4,999847
0,674000	0,608215	4,999847
0,675000	0,511475	4,999847
0,676000	0,609741	4,999847
0,677000	0,527496	4,999847
0,678000	0,592957	4,086914
0,679000	0,548553	3,023224
0,680000	0,574951	4,303284
0,681000	0,566711	4,999847
0,682000	0,563507	4,999847
0,683000	0,585022	4,999847
0,684000	0,551300	4,999847
0,685000	0,601654	4,999847
0,686000	0,540924	4,999847
0,687000	0,616608	4,999847
0,688000	0,531464	4,999847
0,689000	0,630341	3,445587
0,690000	0,526733	2,696533
0,691000	0,621796	4,999847
0,692000	0,549164	3,820801
0,693000	0,604553	4,999847
