LabVIEW Measurement	
Writer_Version	2
Reader_Version	2
Separator	Tab
Decimal_Separator	,
Multi_Headings	Yes
X_Columns	One
Time_Pref	Absolute
Operator	d.nicolai
Date	2023/11/09
Time	15:52:34,4435127999997708487
***End_of_Header***	
	
Channels	2		
Samples	1000	1000	
Date	2023/11/09	2023/11/09	
Time	15:52:43,9205179999995238582	15:52:43,9205179999995238582	
Y_Unit_Label	Volts	Volts	
X_Dimension	Time	Time	
X0	0,0000000000000000E+0	0,0000000000000000E+0	
Delta_X	0,001000	0,001000	
***End_of_Header***			
X_Value	powebox	triggerbox	Comment
0,000000	1,963043	0,862732
0,001000	1,956177	4,042664
0,002000	2,013397	4,266663
0,003000	1,926117	4,999847
0,004000	2,058258	4,999847
0,005000	1,896057	4,999847
0,006000	2,109985	4,999847
0,007000	1,874390	4,999847
0,008000	2,152710	4,999847
0,009000	1,880035	2,891541
0,010000	2,117157	1,333313
0,011000	1,940918	4,793701
0,012000	2,081757	4,999847
0,013000	2,000427	4,999847
0,014000	2,040405	4,999847
0,015000	1,954498	4,999847
0,016000	1,912537	4,999847
0,017000	2,042847	4,999847
0,018000	1,959381	4,999847
0,019000	2,141113	4,349060
0,020000	1,955414	3,174591
0,021000	2,192993	3,126068
0,022000	1,934204	4,216309
0,023000	2,197113	4,999847
0,024000	1,964569	4,999847
0,025000	2,151489	4,999847
0,026000	2,023315	4,999847
0,027000	2,111816	4,999847
0,028000	2,079010	4,381256
0,029000	2,077484	3,562164
0,030000	2,131805	2,080688
0,031000	2,040710	3,846893
0,032000	2,175446	4,999847
0,033000	2,017059	4,999847
0,034000	2,213135	4,999847
0,035000	1,992035	4,999847
0,036000	2,232056	4,999847
0,037000	1,969452	4,999847
0,038000	2,198486	4,999847
0,039000	2,025146	3,245544
0,040000	2,154846	3,788605
0,041000	2,084503	3,654480
0,042000	2,120056	3,488464
0,043000	1,911926	4,999847
0,044000	1,786652	4,999847
0,045000	1,730957	4,999847
0,046000	1,706848	4,999847
0,047000	1,696472	4,999847
0,048000	1,692505	4,999847
0,049000	1,690369	2,389526
0,050000	1,689911	2,789764
0,051000	1,688690	4,146729
0,052000	1,688232	3,639984
0,053000	1,687927	4,999847
0,054000	1,687927	4,999847
0,055000	1,687775	4,999847
0,056000	1,688080	4,999847
0,057000	1,687927	4,999847
0,058000	1,687164	4,999847
0,059000	1,687469	4,202423
0,060000	1,687317	3,871002
0,061000	1,687775	3,468170
0,062000	1,687317	4,116211
0,063000	1,382904	4,999847
0,064000	1,152954	4,999847
0,065000	1,084747	4,999847
0,066000	1,021576	4,999847
0,067000	1,038971	4,999847
0,068000	0,996857	4,382477
0,069000	1,036835	2,940826
0,070000	0,995941	2,846375
0,071000	1,030273	4,553070
0,072000	1,006775	4,999847
0,073000	1,019287	4,999847
0,074000	1,014709	4,999847
0,075000	1,019745	4,999847
0,076000	1,027374	4,999847
0,077000	1,016083	4,999847
0,078000	1,038208	4,999847
0,079000	1,011810	4,525757
0,080000	1,048279	2,491913
0,081000	1,008453	3,161926
0,082000	1,058960	4,188690
0,083000	1,004639	4,999847
0,084000	1,063232	4,999847
0,085000	1,015015	4,999847
0,086000	1,054535	4,999847
0,087000	1,028290	4,999847
0,088000	1,046448	4,355927
0,089000	1,042328	3,768768
0,090000	1,040802	3,117828
0,091000	1,056061	4,892273
0,092000	1,033325	4,999847
0,093000	1,068268	4,999847
0,094000	1,028137	4,999847
0,095000	1,079559	4,999847
0,096000	1,021118	4,999847
0,097000	1,091461	4,999847
0,098000	1,018829	4,999847
0,099000	1,088104	4,882202
0,100000	1,032562	4,286652
0,101000	1,075897	2,750092
0,102000	1,052399	3,783722
0,103000	1,067505	4,999847
0,104000	1,069946	4,999847
0,105000	1,059113	4,999847
0,106000	1,085968	4,999847
0,107000	1,050873	4,999847
0,108000	1,100769	4,207916
0,109000	1,043243	2,905273
0,110000	1,115112	2,400360
0,111000	1,036377	4,167023
0,112000	1,128082	4,974060
0,113000	1,040497	4,999847
0,114000	1,116028	4,999847
0,115000	1,062164	4,999847
0,116000	1,102295	4,999847
0,117000	1,024475	4,999847
0,118000	1,023102	4,891815
0,119000	1,073151	4,684906
0,120000	1,066742	2,525635
0,121000	1,113586	3,760986
0,122000	1,066284	4,604950
0,123000	1,134491	4,999847
0,124000	1,058044	4,999847
0,125000	1,151428	4,999847
0,126000	1,049957	4,999847
0,127000	1,157532	4,999847
0,128000	1,064758	4,371643
0,129000	1,139984	3,505707
0,130000	1,089020	4,405518
0,131000	1,124115	4,092407
0,132000	1,111603	4,999847
0,133000	1,109467	4,999847
0,134000	1,133270	4,999847
0,135000	1,095734	4,999847
0,136000	1,152802	4,999847
0,137000	1,083527	4,999847
0,138000	1,171112	4,999847
0,139000	1,072693	4,600067
0,140000	1,188812	4,002228
0,141000	1,065521	2,543793
0,142000	1,178589	4,113312
0,143000	1,089783	4,999847
0,144000	1,161957	4,999847
0,145000	1,117859	4,999847
0,146000	1,143799	4,999847
0,147000	1,142883	4,996948
0,148000	1,127167	4,233398
0,149000	1,166687	3,674927
0,150000	1,112518	2,418823
0,151000	1,188354	4,665070
0,152000	1,098328	4,669189
0,153000	1,208649	4,999847
0,154000	1,086121	4,999847
0,155000	1,227570	4,999847
0,156000	1,089478	4,999847
0,157000	1,208038	4,999847
0,158000	1,120911	4,741516
0,159000	1,184387	4,364166
0,160000	1,149139	4,189911
0,161000	1,163177	2,817535
0,162000	1,176910	4,741669
0,163000	1,144714	4,999847
0,164000	1,201935	4,999847
0,165000	1,127777	4,999847
0,166000	1,225586	4,999847
0,167000	1,112061	4,999847
0,168000	1,241302	4,512177
0,169000	1,095886	2,864380
0,170000	1,256256	3,105621
0,171000	1,116638	2,495422
0,172000	1,230164	4,999847
0,173000	1,151581	4,999847
0,174000	1,204529	4,999847
0,175000	1,183319	4,999847
0,176000	1,183014	4,999847
0,177000	1,213684	4,999847
0,178000	1,162720	4,999847
0,179000	1,241150	3,574219
0,180000	1,144562	2,663269
0,181000	1,266479	2,671967
0,182000	1,127777	3,629303
0,183000	1,289825	4,999847
0,184000	1,114807	4,999847
0,185000	1,283722	4,999847
0,186000	1,149902	4,999847
0,187000	1,253662	4,999847
0,188000	1,186981	4,735565
0,189000	1,226501	2,762146
0,190000	1,221313	2,254181
0,191000	1,202240	2,867279
0,192000	1,252136	4,363556
0,193000	1,179962	4,999847
0,194000	1,280975	4,999847
0,195000	1,159973	4,999847
0,196000	1,307373	4,999847
0,197000	1,142578	4,999847
0,198000	1,332245	4,999847
0,199000	1,143646	4,055939
0,200000	1,306915	2,741547
0,201000	1,185150	4,999847
0,202000	1,274719	3,349762
0,203000	1,224365	4,999847
0,204000	1,246033	4,999847
0,205000	1,259155	4,999847
0,206000	1,219330	4,999847
0,207000	1,292114	4,999847
0,208000	1,196442	3,980255
0,209000	1,322479	3,769684
0,210000	1,175690	2,330170
0,211000	1,345978	4,711761
0,212000	1,155090	4,795990
0,213000	1,363373	4,999847
0,214000	1,176300	4,999847
0,215000	1,327667	4,999847
0,216000	1,221771	4,999847
0,217000	1,294250	4,999847
0,218000	1,262054	4,999847
0,219000	1,236725	3,560028
0,220000	1,262207	3,710175
0,221000	1,221924	3,338013
0,222000	1,326752	4,064941
0,223000	1,210175	4,742432
0,224000	1,363068	4,999847
0,225000	1,190796	4,999847
0,226000	1,391907	4,999847
0,227000	1,173553	4,999847
0,228000	1,388702	4,999847
0,229000	1,216125	2,751923
0,230000	1,350098	3,293610
0,231000	1,262054	3,860779
0,232000	1,314850	4,999847
0,233000	1,303711	4,999847
0,234000	1,284180	4,999847
0,235000	1,342468	4,999847
0,236000	1,256561	4,999847
0,237000	1,372528	4,999847
0,238000	1,229706	4,999847
0,239000	1,407623	4,199829
0,240000	1,209106	4,035645
0,241000	1,437225	4,929047
0,242000	1,206512	4,298859
0,243000	1,411285	4,999847
0,244000	1,257477	4,999847
0,245000	1,371460	4,999847
0,246000	1,304321	4,999847
0,247000	1,335449	4,999847
0,248000	1,347961	4,424896
0,249000	1,304932	3,866119
0,250000	1,387482	2,840118
0,251000	1,277466	4,763031
0,252000	1,419373	4,933014
0,253000	1,251526	4,999847
0,254000	1,455841	4,999847
0,255000	1,230927	4,999847
0,256000	1,477051	4,999847
0,257000	1,251373	4,999847
0,258000	1,435242	4,824219
0,259000	1,304932	3,912811
0,260000	1,395721	2,672119
0,261000	1,352539	4,598694
0,262000	1,359253	3,917847
0,263000	1,395569	4,999847
0,264000	1,328278	4,999847
0,265000	1,436005	4,999847
0,266000	1,301270	4,999847
0,267000	1,472626	4,999847
0,268000	1,277161	4,987488
0,269000	1,505127	2,868347
0,270000	1,254730	1,370850
0,271000	1,504211	4,999847
0,272000	1,300964	4,024353
0,273000	1,459656	4,999847
0,274000	1,353760	4,999847
0,275000	1,419678	4,999847
0,276000	1,402130	4,999847
0,277000	1,384735	4,999847
0,278000	1,446381	4,999847
0,279000	1,354218	4,257812
0,280000	1,486664	2,688446
0,281000	1,327667	4,081726
0,282000	1,522980	3,037567
0,283000	1,303558	4,999847
0,284000	1,556091	4,999847
0,285000	1,296844	4,999847
0,286000	1,530304	4,999847
0,287000	1,354370	4,999847
0,288000	1,486511	4,999847
0,289000	1,407776	2,856293
0,290000	1,447601	4,783936
0,291000	1,456299	2,771454
0,292000	1,414642	4,581757
0,293000	1,500397	4,999847
0,294000	1,384888	4,999847
0,295000	1,541748	4,999847
0,296000	1,359406	4,999847
0,297000	1,577759	4,999847
0,298000	1,336212	4,894714
0,299000	1,604309	3,712006
0,300000	1,354675	3,900909
0,301000	1,560059	3,078461
0,302000	1,413269	3,300323
0,303000	1,512146	4,999847
0,304000	1,462860	4,999847
0,305000	1,478882	4,999847
0,306000	1,513977	4,999847
0,307000	1,447296	4,999847
0,308000	1,558380	4,084320
0,309000	1,418915	3,695679
0,310000	1,598053	3,610687
0,311000	1,393738	3,938141
0,312000	1,633301	4,999847
0,313000	1,372223	4,999847
0,314000	1,636658	4,999847
0,315000	1,416779	4,999847
0,316000	1,590881	4,999847
0,317000	1,474915	4,999847
0,318000	1,550446	4,989319
0,319000	1,526794	3,737030
0,320000	1,513977	2,673035
0,321000	1,574249	4,401703
0,322000	1,406097	4,025269
0,323000	1,535187	4,999847
0,324000	1,417084	4,999847
0,325000	1,640167	4,999847
0,326000	1,425934	4,999847
0,327000	1,688385	4,999847
0,328000	1,420288	4,231720
0,329000	1,668243	2,574158
0,330000	1,480713	4,029541
0,331000	1,623535	4,901123
0,332000	1,537323	4,999847
0,333000	1,584625	4,999847
0,334000	1,588593	4,999847
0,335000	1,550140	4,999847
0,336000	1,634827	4,999847
0,337000	1,520233	4,999847
0,338000	1,676636	4,631348
0,339000	1,494751	4,526825
0,340000	1,714325	3,323517
0,341000	1,471863	3,885956
0,342000	1,744537	3,488159
0,343000	1,485596	4,999847
0,344000	1,700897	4,999847
0,345000	1,546478	4,999847
0,346000	1,653595	4,999847
0,347000	1,599579	4,999847
0,348000	1,619720	4,371490
0,349000	1,651001	2,962036
0,350000	1,587982	3,344574
0,351000	1,695862	4,523621
0,352000	1,559143	4,303131
0,353000	1,736908	4,999847
0,354000	1,533966	4,999847
0,355000	1,774139	4,999847
0,356000	1,513062	4,999847
0,357000	1,780548	4,999847
0,358000	1,551971	4,385834
0,359000	1,734619	4,060974
0,360000	1,611938	2,465668
0,361000	1,693573	3,791504
0,362000	1,665802	4,112091
0,363000	1,657715	4,999847
0,364000	1,713867	4,999847
0,365000	1,626129	4,999847
0,366000	1,757507	4,999847
0,367000	1,598969	4,999847
0,368000	1,797180	4,514465
0,369000	1,575470	3,299713
0,370000	1,833801	4,403992
0,371000	1,560364	3,723907
0,372000	1,809540	4,999847
0,373000	1,617126	4,999847
0,374000	1,768341	4,999847
0,375000	1,676941	4,999847
0,376000	1,730194	4,999847
0,377000	1,729736	4,999847
0,378000	1,696320	4,727478
0,379000	1,776581	4,101257
0,380000	1,666260	3,892517
0,381000	1,819458	3,161469
0,382000	1,640778	3,390656
0,383000	1,858215	4,999847
0,384000	1,618500	4,999847
0,385000	1,892853	4,999847
0,386000	1,626740	4,999847
0,387000	1,852570	4,999847
0,388000	1,688690	4,999847
0,389000	1,810150	3,600006
0,390000	1,744537	3,520966
0,391000	1,773071	3,191986
0,392000	1,795807	4,712219
0,393000	1,740723	4,999847
0,394000	1,841888	4,999847
0,395000	1,712799	4,999847
0,396000	1,884003	4,999847
0,397000	1,688080	4,999847
0,398000	1,924438	4,542389
0,399000	1,666412	4,840393
0,400000	1,941223	4,030762
0,401000	1,701050	3,180695
0,402000	1,899261	4,075012
0,403000	1,761322	4,999847
0,404000	1,859894	4,999847
0,405000	1,815338	4,999847
0,406000	1,824188	4,999847
0,407000	1,864319	4,999847
0,408000	1,792145	4,999847
0,409000	1,910706	3,883514
0,410000	1,765289	3,596802
0,411000	1,955872	4,037933
0,412000	1,741943	4,999847
0,413000	1,999207	4,999847
0,414000	1,716766	4,999847
0,415000	1,988525	4,999847
0,416000	1,777649	4,999847
0,417000	1,952209	4,999847
0,418000	1,837006	4,512329
0,419000	1,917572	4,132080
0,420000	1,891174	4,999847
0,421000	1,886902	2,565460
0,422000	1,943970	3,953857
0,423000	1,858368	4,593201
0,424000	1,939850	4,999847
0,425000	1,758881	4,999847
0,426000	2,003021	4,999847
0,427000	1,785736	4,999847
0,428000	2,073517	4,426117
0,429000	1,801453	4,145050
0,430000	2,050934	2,212677
0,431000	1,865234	4,655914
0,432000	2,016449	4,838715
0,433000	1,810455	4,999847
0,434000	1,812439	4,999847
0,435000	1,813354	4,999847
0,436000	1,813202	4,999847
0,437000	1,813660	4,999847
0,438000	2,088470	4,855347
0,439000	1,846313	3,888245
0,440000	2,125092	3,904877
0,441000	1,849976	4,290009
0,442000	2,089386	3,160248
0,443000	1,915283	4,784088
0,444000	2,056122	4,999847
0,445000	1,976013	4,999847
0,446000	2,023163	4,999847
0,447000	2,031097	4,999847
0,448000	1,994019	4,543915
0,449000	2,084808	3,805237
0,450000	1,966095	3,016510
0,451000	2,134552	3,197479
0,452000	1,939850	4,943542
0,453000	2,176056	4,999847
0,454000	1,912842	4,999847
0,455000	2,181854	4,999847
0,456000	1,947632	4,999847
0,457000	2,138519	4,999847
0,458000	2,006836	4,999847
0,459000	2,100372	4,692841
0,460000	2,060852	3,023682
0,461000	2,064056	3,926086
0,462000	2,114105	3,465118
0,463000	2,033997	4,999847
0,464000	2,163544	4,999847
0,465000	2,005157	4,999847
0,466000	2,202301	4,999847
0,467000	1,976929	4,999847
0,468000	2,224884	4,463959
0,469000	1,957245	3,754730
0,470000	2,192230	3,831787
0,471000	2,013397	2,898865
0,472000	2,148437	4,999847
0,473000	2,071686	4,999847
0,474000	2,111969	4,999847
0,475000	2,125244	4,999847
0,476000	2,080688	4,999847
0,477000	2,177124	4,999847
0,478000	2,052307	4,999847
0,479000	2,215271	3,674164
0,480000	2,026978	2,775879
0,481000	1,854095	3,751221
0,482000	1,760712	3,665314
0,483000	1,714630	4,999847
0,484000	1,701508	4,999847
0,485000	1,695709	4,999847
0,486000	1,693268	4,999847
0,487000	1,692047	4,999847
0,488000	1,690826	4,999847
0,489000	1,690826	3,154602
0,490000	1,691132	3,594666
0,491000	1,691132	3,522034
0,492000	1,691132	4,999847
0,493000	1,690826	4,999847
0,494000	1,691132	4,999847
0,495000	1,690826	4,999847
0,496000	1,690216	4,999847
0,497000	1,690674	4,999847
0,498000	1,690674	4,999847
0,499000	1,690369	3,872223
0,500000	1,690063	2,318573
0,501000	1,343231	4,603271
0,502000	1,129761	3,682709
0,503000	1,083679	4,999847
0,504000	1,015625	4,999847
0,505000	1,042023	4,999847
0,506000	1,001129	4,999847
0,507000	1,029205	4,999847
0,508000	1,008759	4,999847
0,509000	1,022797	3,633881
0,510000	1,013641	3,126068
0,511000	1,015167	4,539642
0,512000	1,027069	4,942932
0,513000	1,013641	4,999847
0,514000	1,037445	4,999847
0,515000	1,010132	4,999847
0,516000	1,048126	4,999847
0,517000	1,006470	4,999847
0,518000	1,057587	4,999847
0,519000	1,004333	3,466034
0,520000	1,058197	4,196320
0,521000	1,016998	2,976379
0,522000	1,051025	2,772369
0,523000	1,030884	4,999847
0,524000	1,044159	4,999847
0,525000	1,044006	4,999847
0,526000	1,030884	4,999847
0,527000	0,991058	4,999847
0,528000	0,985870	4,905396
0,529000	1,048889	3,848114
0,530000	1,018219	2,621613
0,531000	1,076813	4,649658
0,532000	1,019287	4,582062
0,533000	1,090546	4,999847
0,534000	1,021881	4,999847
0,535000	1,083527	4,999847
0,536000	1,038971	4,999847
0,537000	1,073914	4,999847
0,538000	1,055145	4,999847
0,539000	1,064758	4,640808
0,540000	1,066589	3,321991
0,541000	1,042633	4,551392
0,542000	1,070557	2,744446
0,543000	1,041260	4,999847
0,544000	1,098022	4,999847
0,545000	1,039581	4,999847
0,546000	1,113739	4,999847
0,547000	1,033783	4,999847
0,548000	1,123199	4,999847
0,549000	1,044006	4,142151
0,550000	1,110077	3,421021
0,551000	1,064606	4,283600
0,552000	1,097107	4,999847
0,553000	1,083984	4,999847
0,554000	1,085510	4,999847
0,555000	1,102448	4,999847
0,556000	1,074677	4,999847
0,557000	1,119537	4,999847
0,558000	1,064758	4,999847
0,559000	1,135864	3,958893
0,560000	1,054993	3,586578
0,561000	1,150970	4,362030
0,562000	1,047821	3,291626
0,563000	1,151276	4,999847
0,564000	1,068878	4,999847
0,565000	1,133881	4,999847
0,566000	1,092224	4,999847
0,567000	1,118927	4,999847
0,568000	1,114197	4,876099
0,569000	1,103516	3,060150
0,570000	1,132965	2,364197
0,571000	1,091461	3,661499
0,572000	1,153412	4,701538
0,573000	1,080170	4,999847
0,574000	1,171570	4,999847
0,575000	1,069183	4,999847
0,576000	1,188812	4,999847
0,577000	1,068420	4,999847
0,578000	1,176300	4,999847
0,579000	1,095734	4,617004
0,580000	1,156311	3,503265
0,581000	1,121826	3,920441
0,582000	1,139221	3,471680
0,583000	1,146088	4,999847
0,584000	1,122589	4,999847
0,585000	1,168060	4,999847
0,586000	1,107788	4,999847
0,587000	1,189423	4,999847
0,588000	1,094666	4,634094
0,589000	1,209259	2,777710
0,590000	1,082916	3,350525
0,591000	1,222534	3,682098
0,592000	1,094208	3,921814
0,593000	1,200409	4,999847
0,594000	1,125641	4,999847
0,595000	1,177979	4,999847
0,596000	1,153870	4,999847
0,597000	1,158142	4,999847
0,598000	1,180267	4,999847
0,599000	1,140137	4,432068
0,600000	1,204681	4,999847
0,601000	1,123962	3,277588
0,602000	1,228180	3,571167
0,603000	1,109467	4,999847
0,604000	1,249390	4,999847
0,605000	1,096191	4,999847
0,606000	1,250000	4,999847
0,607000	1,123505	4,999847
0,608000	1,223450	4,337616
0,609000	1,157379	3,838806
0,610000	1,198730	3,901672
0,611000	1,188049	2,385559
0,612000	1,177063	4,999847
0,613000	1,216583	4,999847
0,614000	1,157532	4,999847
0,615000	1,242676	4,999847
0,616000	1,139526	4,999847
0,617000	1,267548	4,999847
0,618000	1,123962	4,999847
0,619000	1,290436	3,678131
0,620000	1,118164	3,302917
0,621000	1,267395	4,468384
0,622000	1,153107	3,814392
0,623000	1,243744	4,999847
0,624000	1,191254	4,999847
0,625000	1,218719	4,999847
0,626000	1,224670	4,999847
0,627000	1,195374	4,999847
0,628000	1,255493	4,901733
0,629000	1,115417	2,830353
0,630000	1,206512	2,798004
0,631000	1,123047	3,992920
0,632000	1,295624	4,999847
0,633000	1,132507	4,999847
0,634000	1,324463	4,999847
0,635000	1,147308	4,999847
0,636000	1,295013	4,999847
0,637000	1,188965	4,999847
0,638000	1,265106	4,675903
0,639000	1,227570	3,845825
0,640000	1,236877	3,756104
0,641000	1,263123	4,216309
0,642000	1,212616	3,786011
0,643000	1,295319	4,999847
0,644000	1,190948	4,999847
0,645000	1,324310	4,999847
0,646000	1,170654	4,999847
0,647000	1,351776	4,999847
0,648000	1,148529	4,999847
0,649000	1,351624	2,937622
0,650000	1,183167	4,681244
0,651000	1,316681	2,477112
0,652000	1,226654	4,999847
0,653000	1,284485	4,999847
0,654000	1,266022	4,999847
0,655000	1,255646	4,999847
0,656000	1,302338	4,999847
0,657000	1,229401	4,999847
0,658000	1,335449	4,999847
0,659000	1,205750	4,497375
0,660000	1,365356	2,701569
0,661000	1,185303	4,560089
0,662000	1,393738	3,651886
0,663000	1,175385	4,999847
0,664000	1,376190	4,999847
0,665000	1,222229	4,999847
0,666000	1,338196	4,999847
0,667000	1,266479	4,999847
0,668000	1,304321	4,576263
0,669000	1,307678	3,384552
0,670000	1,274261	3,519135
0,671000	1,344604	2,852478
0,672000	1,247711	4,999847
0,673000	1,378632	4,999847
0,674000	1,223755	4,999847
0,675000	1,410370	4,999847
0,676000	1,202850	4,999847
0,677000	1,435394	4,999847
0,678000	1,213074	4,870911
0,679000	1,397858	4,576721
0,680000	1,263275	2,828369
0,681000	1,359406	3,883972
0,682000	1,309204	3,437347
0,683000	1,325378	4,999847
0,684000	1,351166	4,999847
0,685000	1,295166	4,999847
0,686000	1,389923	4,999847
0,687000	1,267853	4,999847
0,688000	1,425476	4,885559
0,689000	1,245270	3,865509
0,690000	1,452789	3,270569
0,691000	1,222382	3,331909
0,692000	1,464691	4,999847
0,693000	1,258850	4,999847
