LabVIEW Measurement	
Writer_Version	2
Reader_Version	2
Separator	Tab
Decimal_Separator	,
Multi_Headings	Yes
X_Columns	One
Time_Pref	Absolute
Operator	d.nicolai
Date	2023/11/09
Time	15:52:34,4435127999997708487
***End_of_Header***	
	
Channels	2		
Samples	1000	1000	
Date	2023/11/09	2023/11/09	
Time	15:52:35,4875128999997480657	15:52:35,4875128999997480657	
Y_Unit_Label	Volts	Volts	
X_Dimension	Time	Time	
X0	0,0000000000000000E+0	0,0000000000000000E+0	
Delta_X	0,001000	0,001000	
***End_of_Header***			
X_Value	powebox	triggerbox	Comment
0,000000	1,633911	0,902710
0,001000	1,407166	4,388428
0,002000	1,668854	4,999847
0,003000	1,400909	4,999847
0,004000	1,641235	4,999847
0,005000	1,460876	4,999847
0,006000	1,596680	4,999847
0,007000	1,516876	4,999847
0,008000	1,557465	4,860992
0,009000	1,567688	4,001923
0,010000	1,523895	4,286499
0,011000	1,614075	3,897705
0,012000	1,494598	3,749695
0,013000	1,654205	4,999847
0,014000	1,469116	4,999847
0,015000	1,693115	4,999847
0,016000	1,447449	4,999847
0,017000	1,719360	4,999847
0,018000	1,466522	4,114532
0,019000	1,674805	3,409882
0,020000	1,527252	4,338074
0,021000	1,632538	3,114777
0,022000	1,581421	4,461212
0,023000	1,594849	4,999847
0,024000	1,631165	4,999847
0,025000	1,562653	4,999847
0,026000	1,675568	4,999847
0,027000	1,534271	4,999847
0,028000	1,716003	4,999847
0,029000	1,509857	4,106598
0,030000	1,752930	3,851471
0,031000	1,488800	4,999847
0,032000	1,754761	3,758392
0,033000	1,533356	4,999847
0,034000	1,708527	4,999847
0,035000	1,592102	4,999847
0,036000	1,667633	4,999847
0,037000	1,645050	4,999847
0,038000	1,631927	4,927063
0,039000	1,693115	3,597565
0,040000	1,601410	2,472076
0,041000	1,736908	4,500275
0,042000	1,573944	4,354706
0,043000	1,776428	4,999847
0,044000	1,551056	4,999847
0,045000	1,812286	4,999847
0,046000	1,539612	4,999847
0,047000	1,787720	4,999847
0,048000	1,599884	4,999847
0,049000	1,743011	4,062500
0,050000	1,583405	3,832703
0,051000	1,666718	3,175201
0,052000	1,693115	3,940735
0,053000	1,663208	4,999847
0,054000	1,753082	4,999847
0,055000	1,638947	4,999847
0,056000	1,797791	4,999847
0,057000	1,613922	4,999847
0,058000	1,836395	4,999847
0,059000	1,592865	3,485413
0,060000	1,866302	1,972656
0,061000	1,605835	4,753876
0,062000	1,822357	4,672241
0,063000	1,667023	4,999847
0,064000	1,780243	4,999847
0,065000	1,723328	4,999847
0,066000	1,743622	4,999847
0,067000	1,773224	4,999847
0,068000	1,711121	4,999847
0,069000	1,818237	4,854431
0,070000	1,682129	4,525909
0,071000	1,858978	3,504028
0,072000	1,658173	4,163971
0,073000	1,899261	4,999847
0,074000	1,638184	4,999847
0,075000	1,909790	4,999847
0,076000	1,676788	4,999847
0,077000	1,864777	4,999847
0,078000	1,736755	4,999847
0,079000	1,824036	3,440552
0,080000	1,791077	3,597870
0,081000	1,789246	3,555756
0,082000	1,839752	4,689484
0,083000	1,758575	4,999847
0,084000	1,884155	4,999847
0,085000	1,731110	4,999847
0,086000	1,927032	4,999847
0,087000	1,707916	4,999847
0,088000	1,969299	4,999847
0,089000	1,693726	4,466705
0,090000	1,957397	3,555908
0,091000	1,753693	4,328766
0,092000	1,917114	3,489838
0,093000	1,811676	4,999847
0,094000	1,880188	4,999847
0,095000	1,863861	4,999847
0,096000	1,847229	4,999847
0,097000	1,913300	4,999847
0,098000	1,817017	4,999847
0,099000	1,960449	3,246765
0,100000	1,790771	2,534027
0,101000	2,006531	4,332123
0,102000	1,768188	4,999847
0,103000	2,047729	4,999847
0,104000	1,775513	4,999847
0,105000	2,014008	4,999847
0,106000	1,835632	4,999847
0,107000	1,977539	4,999847
0,108000	1,891785	4,999847
0,109000	1,944122	4,138947
0,110000	1,945953	3,652344
0,111000	1,913452	4,808960
0,112000	1,997833	3,773041
0,113000	1,885986	4,999847
0,114000	2,048035	4,999847
0,115000	1,860504	4,999847
0,116000	1,813354	4,999847
0,117000	1,813507	4,999847
0,118000	1,813965	4,999847
0,119000	1,813812	4,053345
0,120000	2,034149	3,386230
0,121000	1,898346	3,850861
0,122000	2,081604	4,700317
0,123000	1,872406	4,999847
0,124000	2,127838	4,999847
0,125000	1,849213	4,999847
0,126000	2,121887	4,999847
0,127000	1,905670	4,999847
0,128000	2,086029	4,999847
0,129000	1,965485	3,932190
0,130000	2,050934	2,946014
0,131000	2,022400	4,608765
0,132000	2,019196	3,916779
0,133000	2,077789	4,999847
0,134000	1,990051	4,999847
0,135000	2,122192	4,999847
0,136000	1,955261	4,999847
0,137000	2,166595	4,999847
0,138000	1,932220	4,447327
0,139000	2,201996	3,014984
0,140000	1,927338	4,150696
0,141000	2,159882	4,309998
0,142000	1,985321	4,652863
0,143000	2,118683	4,999847
0,144000	2,026978	4,999847
0,145000	2,070312	4,999847
0,146000	2,076569	4,999847
0,147000	2,027893	4,999847
0,148000	2,100677	4,999847
0,149000	2,011719	3,213196
0,150000	2,188263	2,462006
0,151000	1,994171	4,135437
0,152000	2,166748	3,365479
0,153000	1,918793	4,999847
0,154000	2,208862	4,999847
0,155000	1,990662	4,999847
0,156000	2,167969	4,999847
0,157000	2,054596	4,999847
0,158000	2,130280	4,999847
0,159000	2,112122	3,056183
0,160000	2,097473	4,001312
0,161000	2,164764	3,833923
0,162000	2,068024	4,503021
0,163000	1,881104	4,999847
0,164000	1,772614	4,999847
0,165000	1,726227	4,999847
0,166000	1,706543	4,999847
0,167000	1,697998	4,999847
0,168000	1,694183	4,674835
0,169000	1,692810	3,847809
0,170000	1,691437	3,104858
0,171000	1,691589	4,042511
0,172000	1,690979	3,597412
0,173000	1,690216	4,999847
0,174000	1,690369	4,999847
0,175000	1,690063	4,999847
0,176000	1,690674	4,999847
0,177000	1,690674	4,999847
0,178000	1,690979	4,270172
0,179000	1,690216	3,882904
0,180000	1,690521	2,635803
0,181000	1,690521	3,757019
0,182000	1,690521	4,755859
0,183000	1,353302	4,999847
0,184000	1,136169	4,999847
0,185000	1,084595	4,999847
0,186000	1,017609	4,999847
0,187000	1,042938	4,999847
0,188000	0,998688	4,999847
0,189000	1,031647	3,898773
0,190000	1,005859	2,599487
0,191000	1,025085	4,457550
0,192000	1,015930	3,486786
0,193000	1,020050	4,999847
0,194000	1,026154	4,999847
0,195000	1,016083	4,999847
0,196000	1,036224	4,999847
0,197000	1,011658	4,999847
0,198000	1,045685	4,245911
0,199000	1,008453	2,817230
0,200000	1,055908	4,199371
0,201000	1,004944	3,637543
0,202000	1,062012	4,999847
0,203000	1,012878	4,999847
0,204000	1,054535	4,999847
0,205000	1,027069	4,999847
0,206000	1,047058	4,999847
0,207000	1,040344	4,999847
0,208000	1,040649	4,896851
0,209000	1,053314	4,146423
0,210000	1,033173	2,953186
0,211000	1,064758	3,068390
0,212000	1,027069	2,816772
0,213000	1,075745	4,999847
0,214000	1,020813	4,999847
0,215000	1,087952	4,999847
0,216000	1,017914	4,999847
0,217000	1,087799	4,999847
0,218000	1,034851	4,576721
0,219000	1,077881	3,387299
0,220000	1,051483	4,999847
0,221000	1,068420	3,818970
0,222000	1,066895	4,895325
0,223000	1,058807	4,999847
0,224000	1,082458	4,999847
0,225000	1,050720	4,999847
0,226000	1,097260	4,999847
0,227000	1,043091	4,999847
0,228000	1,111298	4,999847
0,229000	1,036682	4,114838
0,230000	1,125183	4,556427
0,231000	1,038513	3,664703
0,232000	1,114960	2,934113
0,233000	1,059723	4,999847
0,234000	1,102295	4,999847
0,235000	1,079254	4,999847
0,236000	1,089630	4,999847
0,237000	1,098175	4,999847
0,238000	1,078949	4,999847
0,239000	1,116333	3,460541
0,240000	1,068268	4,161530
0,241000	1,132355	3,363495
0,242000	1,058960	4,999847
0,243000	1,148071	4,999847
0,244000	1,050262	4,999847
0,245000	1,157074	4,999847
0,246000	1,062164	4,999847
0,247000	1,140137	4,999847
0,248000	1,086426	4,999847
0,249000	1,124115	4,620972
0,250000	1,108856	2,826691
0,251000	1,109314	3,911743
0,252000	1,129608	4,228210
0,253000	1,096039	4,999847
0,254000	1,122742	4,999847
0,255000	1,042175	4,999847
0,256000	1,150665	4,999847
0,257000	1,065979	4,999847
0,258000	1,182098	4,294586
0,259000	1,062469	3,950653
0,260000	1,183319	3,216553
0,261000	1,088104	3,538208
0,262000	1,163483	4,999847
0,263000	1,115570	4,999847
0,264000	1,144867	4,999847
0,265000	1,140137	4,999847
0,266000	1,128387	4,999847
0,267000	1,163177	4,999847
0,268000	1,112823	4,999847
0,269000	1,184998	4,726868
0,270000	1,099091	3,942871
0,271000	1,205139	4,514923
0,272000	1,086578	4,465485
0,273000	1,224060	4,999847
0,274000	1,085968	4,999847
0,275000	1,208344	4,999847
0,276000	1,116943	4,999847
0,277000	1,185455	4,999847
0,278000	1,146698	4,999847
0,279000	1,165009	3,906250
0,280000	1,173859	2,231598
0,281000	1,146393	4,999847
0,282000	1,199341	4,999847
0,283000	1,128540	4,999847
0,284000	1,221161	4,999847
0,285000	1,113586	4,999847
0,286000	1,243896	4,999847
0,287000	1,100159	4,999847
0,288000	1,258545	4,999847
0,289000	1,114044	4,432220
0,290000	1,231232	2,868347
0,291000	1,147308	4,165344
0,292000	1,205597	3,406372
0,293000	1,179199	4,978790
0,294000	1,183472	4,999847
0,295000	1,208191	4,999847
0,296000	1,163177	4,999847
0,297000	1,235352	4,999847
0,298000	1,144714	4,614258
0,299000	1,261292	4,215698
0,300000	1,128235	2,989655
0,301000	1,284790	3,009949
0,302000	1,112518	4,999847
0,303000	1,281891	4,999847
0,304000	1,143494	4,999847
0,305000	1,253052	4,999847
0,306000	1,182098	4,999847
0,307000	1,226654	4,999847
0,308000	1,216736	4,999847
0,309000	1,202545	4,839172
0,310000	1,246796	3,045197
0,311000	1,181183	4,304810
0,312000	1,275635	3,500519
0,313000	1,160889	4,999847
0,314000	1,302948	4,999847
0,315000	1,143646	4,999847
0,316000	1,328735	4,999847
0,317000	1,138916	4,999847
0,318000	1,307983	4,999847
0,319000	1,180267	2,801666
0,320000	1,275940	3,637848
0,321000	1,219177	3,875122
0,322000	1,247253	4,801941
0,323000	1,255646	4,999847
0,324000	1,221008	4,999847
0,325000	1,286316	4,999847
0,326000	1,198273	4,999847
0,327000	1,317291	4,999847
0,328000	1,177063	4,937897
0,329000	1,345520	3,558655
0,330000	1,158295	2,373505
0,331000	1,355743	4,766083
0,332000	1,171265	4,912720
0,333000	1,330261	4,999847
0,334000	1,216736	4,999847
0,335000	1,296692	4,999847
0,336000	1,256866	4,999847
0,337000	1,266327	4,999847
0,338000	1,294403	4,444122
0,339000	1,239166	3,935852
0,340000	1,329041	3,038330
0,341000	1,214905	4,999847
0,342000	1,359863	4,918976
0,343000	1,193390	4,999847
0,344000	1,388397	4,999847
0,345000	1,174164	4,999847
0,346000	1,389923	4,999847
0,347000	1,210022	4,999847
0,348000	1,351318	4,999847
0,349000	1,256409	4,703369
0,350000	1,316681	2,517548
0,351000	1,298523	4,999847
0,352000	1,285553	3,254089
0,353000	1,336517	4,999847
0,354000	1,260681	4,999847
0,355000	1,372070	4,999847
0,356000	1,232147	4,999847
0,357000	1,330872	4,999847
0,358000	1,116486	4,685822
0,359000	1,393890	3,001251
0,360000	1,185455	2,741699
0,361000	1,406250	3,371277
0,362000	1,247406	4,921417
0,363000	1,370544	4,999847
0,364000	1,298370	4,999847
0,365000	1,337891	4,999847
0,366000	1,342316	4,999847
0,367000	1,306305	4,999847
0,368000	1,382141	4,999847
0,369000	1,278839	4,424591
0,370000	1,418152	3,990936
0,371000	1,254120	4,020233
0,372000	1,450806	3,422699
0,373000	1,231232	4,456787
0,374000	1,476746	4,999847
0,375000	1,244202	4,999847
0,376000	1,436768	4,999847
0,377000	1,297302	4,999847
0,378000	1,395569	4,999847
0,379000	1,345673	3,138275
0,380000	1,360016	3,724060
0,381000	1,389618	3,840485
0,382000	1,329498	4,999847
0,383000	1,430359	4,999847
0,384000	1,300507	4,999847
0,385000	1,464386	4,999847
0,386000	1,275787	4,999847
0,387000	1,498566	4,999847
0,388000	1,253815	4,999847
0,389000	1,504211	4,357910
0,390000	1,291351	3,910370
0,391000	1,459351	4,391632
0,392000	1,345673	3,446045
0,393000	1,420288	4,999847
0,394000	1,395111	4,999847
0,395000	1,384735	4,999847
0,396000	1,438599	4,999847
0,397000	1,353760	4,999847
0,398000	1,479034	4,999847
0,399000	1,326752	4,102936
0,400000	1,515503	2,894745
0,401000	1,302795	4,382782
0,402000	1,549530	4,186096
0,403000	1,289368	4,999847
0,404000	1,531219	4,999847
0,405000	1,343842	4,999847
0,406000	1,487427	4,999847
0,407000	1,401062	4,999847
0,408000	1,450348	4,686890
0,409000	1,450348	4,088745
0,410000	1,415405	3,650360
0,411000	1,494751	3,282623
0,412000	1,385498	3,370209
0,413000	1,533508	4,999847
0,414000	1,358643	4,999847
0,415000	1,571198	4,999847
0,416000	1,336365	4,999847
0,417000	1,603088	4,999847
0,418000	1,344147	4,999847
0,419000	1,560822	3,521271
0,420000	1,404877	3,634949
0,421000	1,517487	3,456879
0,422000	1,458435	4,999847
0,423000	1,480255	4,999847
0,424000	1,507416	4,999847
0,425000	1,447754	4,999847
0,426000	1,551361	4,999847
0,427000	1,418610	4,999847
0,428000	1,590118	4,999847
0,429000	1,392517	4,446564
0,430000	1,626282	3,688049
0,431000	1,371002	3,480225
0,432000	1,637573	3,726654
0,433000	1,407318	4,999847
0,434000	1,591797	4,999847
0,435000	1,465454	4,999847
0,436000	1,549835	4,999847
0,437000	1,518097	4,999847
0,438000	1,513977	4,434052
0,439000	1,566010	3,321686
0,440000	1,482544	4,029236
0,441000	1,609497	2,902832
0,442000	1,455078	4,999847
0,443000	1,649628	4,999847
0,444000	1,431122	4,999847
0,445000	1,684875	4,999847
0,446000	1,414032	4,999847
0,447000	1,669312	4,999847
0,448000	1,471100	4,999847
0,449000	1,623688	4,443054
0,450000	1,528473	2,743073
0,451000	1,584320	4,777985
0,452000	1,579895	3,102570
0,453000	1,549225	4,999847
0,454000	1,626740	4,999847
0,455000	1,519165	4,999847
0,456000	1,668549	4,999847
0,457000	1,492615	4,999847
0,458000	1,707153	4,094391
0,459000	1,420288	2,989197
0,460000	1,652222	3,018341
0,461000	1,411133	4,317474
0,462000	1,674347	4,999847
0,463000	1,525421	4,999847
0,464000	1,653748	4,999847
0,465000	1,590118	4,999847
0,466000	1,619873	4,999847
0,467000	1,642456	4,999847
0,468000	1,586609	4,999847
0,469000	1,688080	4,223480
0,470000	1,558075	3,467712
0,471000	1,729584	3,914185
0,472000	1,532898	3,073273
0,473000	1,767120	4,999847
0,474000	1,510773	4,999847
0,475000	1,780701	4,999847
0,476000	1,541901	4,999847
0,477000	1,734467	4,999847
0,478000	1,602020	4,998627
0,479000	1,693115	3,866425
0,480000	1,655884	3,605957
0,481000	1,656952	3,654938
0,482000	1,704865	4,999847
0,483000	1,625061	4,999847
0,484000	1,748962	4,999847
0,485000	1,597290	4,999847
0,486000	1,789551	4,999847
0,487000	1,573486	4,999847
0,488000	1,825867	4,999847
0,489000	1,553497	3,945160
0,490000	1,815033	3,640900
0,491000	1,609344	3,295746
0,492000	1,769257	3,483429
0,493000	1,667023	4,999847
0,494000	1,729584	4,999847
0,495000	1,720428	4,999847
0,496000	1,694794	4,999847
0,497000	1,768036	4,999847
0,498000	1,664734	4,928589
0,499000	1,811066	4,119263
0,500000	1,638641	2,437897
0,501000	1,850281	4,099731
0,502000	1,616058	4,734650
0,503000	1,886902	4,999847
0,504000	1,616058	4,999847
0,505000	1,852112	4,999847
0,506000	1,678314	4,999847
0,507000	1,808777	4,999847
0,508000	1,735382	4,738922
0,509000	1,771545	4,662170
0,510000	1,786346	3,554993
0,511000	1,738434	4,189911
0,512000	1,832428	3,335571
0,513000	1,709747	4,563751
0,514000	1,875153	4,999847
0,515000	1,685638	4,999847
0,516000	1,916046	4,999847
0,517000	1,663971	4,999847
0,518000	1,939240	4,999847
0,519000	1,690216	3,512421
0,520000	1,898041	2,614899
0,521000	1,750793	4,204102
0,522000	1,847992	4,999847
0,523000	1,805725	4,999847
0,524000	1,821899	4,999847
0,525000	1,854858	4,999847
0,526000	1,789398	4,999847
0,527000	1,900940	4,999847
0,528000	1,761932	4,999847
0,529000	1,945648	4,522552
0,530000	1,737823	2,398376
0,531000	1,990051	3,646698
0,532000	1,716614	4,837036
0,533000	1,990356	4,925385
0,534000	1,768646	4,999847
0,535000	1,951141	4,999847
0,536000	1,827240	4,999847
0,537000	1,914368	4,999847
0,538000	1,879883	4,376678
0,539000	1,882019	3,300171
0,540000	1,931610	3,966370
0,541000	1,851959	2,815247
0,542000	1,980896	4,999847
0,543000	1,825256	4,999847
0,544000	2,028198	4,999847
0,545000	1,801300	4,999847
0,546000	2,073059	4,999847
0,547000	1,793671	4,999847
0,548000	2,050018	4,999847
0,549000	1,854706	4,187317
0,550000	2,014313	3,213043
0,551000	1,912842	3,474884
0,552000	1,981506	3,949585
0,553000	1,811981	4,912109
0,554000	1,813202	4,999847
0,555000	1,813660	4,999847
0,556000	1,819153	4,999847
0,557000	2,093048	4,999847
0,558000	1,876984	4,967651
0,559000	2,055054	3,130951
0,560000	1,935883	3,911591
0,561000	2,021790	3,497772
0,562000	1,900177	4,999847
0,563000	1,863861	4,999847
0,564000	1,911469	4,999847
0,565000	1,809387	4,999847
0,566000	1,943207	4,999847
0,567000	1,830902	4,999847
0,568000	2,084808	4,999847
0,569000	1,875916	3,988800
0,570000	2,167358	4,802246
0,571000	1,901245	3,743591
0,572000	2,143097	3,040466
0,573000	1,968689	4,999847
0,574000	2,106934	4,999847
0,575000	2,028198	4,999847
0,576000	2,071228	4,999847
0,577000	2,080841	4,999847
0,578000	2,037506	4,999847
0,579000	2,132263	2,807465
0,580000	2,008972	4,547882
0,581000	2,178040	3,996735
0,582000	1,981049	4,999847
0,583000	2,209930	4,999847
0,584000	1,954193	4,999847
0,585000	2,208099	4,999847
0,586000	1,978760	4,999847
0,587000	2,161407	4,999847
0,588000	2,039337	4,999847
0,589000	2,122955	4,260254
0,590000	2,095337	3,323975
0,591000	2,088318	4,645691
0,592000	2,148743	2,080536
0,593000	2,058563	4,999847
0,594000	2,194061	4,999847
0,595000	2,031250	4,999847
0,596000	2,223969	4,999847
0,597000	2,005310	4,999847
0,598000	2,237244	4,999847
0,599000	1,983032	2,605896
0,600000	1,825409	4,302216
0,601000	1,747284	3,538971
0,602000	1,714325	4,321442
0,603000	1,699677	4,999847
0,604000	1,694336	4,999847
0,605000	1,691437	4,999847
0,606000	1,690826	4,999847
0,607000	1,690979	4,999847
0,608000	1,690979	4,999847
0,609000	1,691132	4,570007
0,610000	1,691132	4,999847
0,611000	1,690826	3,317108
0,612000	1,690369	3,865204
0,613000	1,690826	4,950409
0,614000	1,690521	4,999847
0,615000	1,690063	4,999847
0,616000	1,690216	4,999847
0,617000	1,689911	4,999847
0,618000	1,689911	4,866638
0,619000	1,689911	3,673248
0,620000	1,525421	4,201813
0,621000	1,237030	3,593903
0,622000	1,097107	4,999847
0,623000	1,051636	4,999847
0,624000	1,028748	4,999847
0,625000	1,015167	4,999847
0,626000	1,024170	4,999847
0,627000	1,006622	4,999847
0,628000	1,030731	4,999847
0,629000	1,002350	4,356842
0,630000	1,039124	3,254852
0,631000	0,998993	3,460999
0,632000	1,047211	3,546143
0,633000	1,000977	4,999847
0,634000	1,042938	4,999847
0,635000	1,013184	4,999847
0,636000	1,037140	4,999847
0,637000	1,025696	4,999847
0,638000	1,031952	4,794464
0,639000	1,037140	3,081512
0,640000	1,026154	4,023743
0,641000	1,048584	2,726440
0,642000	1,021271	4,044189
0,643000	1,060028	4,999847
0,644000	1,016846	4,999847
0,645000	1,070709	4,999847
0,646000	1,012726	4,999847
0,647000	1,077728	4,999847
0,648000	1,020355	4,393158
0,649000	1,068268	4,018097
0,650000	1,036377	4,999847
0,651000	1,059875	3,451233
0,652000	1,051178	3,896790
0,653000	1,051483	4,999847
0,654000	1,065826	4,999847
0,655000	1,043243	4,999847
0,656000	1,077728	4,999847
0,657000	1,036682	4,999847
0,658000	1,091766	3,796844
0,659000	1,030884	3,798065
0,660000	1,104279	4,209747
0,661000	1,025848	3,494110
0,662000	1,103821	4,999847
0,663000	1,042786	4,999847
0,664000	1,023407	4,999847
0,665000	1,006622	4,999847
0,666000	1,058807	4,999847
0,667000	1,070251	4,999847
0,668000	1,067810	4,999847
0,669000	1,093445	4,775238
0,670000	1,060181	4,311066
0,671000	1,111145	4,616547
0,672000	1,052856	4,223328
0,673000	1,126862	4,999847
0,674000	1,044922	4,999847
0,675000	1,141663	4,999847
0,676000	1,044159	4,999847
0,677000	1,129608	4,999847
0,678000	1,067505	4,958649
0,679000	1,115875	3,299103
0,680000	1,089172	3,580627
0,681000	1,101837	3,757782
0,682000	1,108856	4,854584
0,683000	1,089630	4,999847
0,684000	1,129456	4,999847
0,685000	1,078644	4,999847
0,686000	1,147003	4,999847
0,687000	1,068268	4,999847
0,688000	1,163330	4,602203
0,689000	1,059113	3,668976
0,690000	1,174622	2,878265
0,691000	1,070251	3,907318
0,692000	1,155701	3,250427
0,693000	1,096497	4,999847
