LabVIEW Measurement	
Writer_Version	2
Reader_Version	2
Separator	Tab
Decimal_Separator	,
Multi_Headings	Yes
X_Columns	One
Time_Pref	Absolute
Operator	d.nicolai
Date	2023/11/09
Time	16:37:39,5865123999996968043
***End_of_Header***	
	
Channels	2		
Samples	1000	1000	
Date	2023/11/09	2023/11/09	
Time	16:37:55,5515123999997149271	16:37:55,5515123999997149271	
Y_Unit_Label	Volts	Volts	
X_Dimension	Time	Time	
X0	0,0000000000000000E+0	0,0000000000000000E+0	
Delta_X	0,001000	0,001000	
***End_of_Header***			
X_Value	powebox	triggerbox	Comment
0,000000	1,164856	1,069794
0,001000	1,044464	4,999847
0,002000	1,170349	4,999847
0,003000	1,063690	4,999847
0,004000	1,148529	4,999847
0,005000	1,092072	3,728638
0,006000	1,128693	4,114685
0,007000	1,118622	4,764557
0,008000	1,110840	3,686676
0,009000	1,142426	4,999847
0,010000	1,094666	4,999847
0,011000	1,164703	4,999847
0,012000	1,080170	4,999847
0,013000	1,185303	4,999847
0,014000	1,067505	4,692383
0,015000	1,204681	3,791809
0,016000	1,059113	3,339996
0,017000	1,196136	4,999847
0,018000	1,091614	4,999847
0,019000	1,171112	4,999847
0,020000	1,123047	4,999847
0,021000	1,148529	4,999847
0,022000	1,152344	4,999847
0,023000	1,128387	4,999847
0,024000	1,178741	4,775238
0,025000	1,110382	4,182281
0,026000	1,203308	3,823090
0,027000	1,094513	4,751740
0,028000	1,225281	4,234772
0,029000	1,080322	4,999847
0,030000	1,245880	4,999847
0,031000	1,086731	4,999847
0,032000	1,220856	4,999847
0,033000	1,122589	4,999847
0,034000	1,192322	4,674530
0,035000	1,156464	3,533630
0,036000	1,167450	4,569550
0,037000	1,187897	4,171600
0,038000	1,145172	4,999847
0,039000	1,216431	4,999847
0,040000	1,125488	4,999847
0,041000	1,242371	4,999847
0,042000	1,107788	4,999847
0,043000	1,266785	4,999847
0,044000	1,092072	4,999847
0,045000	1,275940	4,335480
0,046000	1,115112	3,554382
0,047000	1,305084	4,999847
0,048000	1,375427	4,385529
0,049000	1,404114	4,999847
0,050000	1,217957	4,999847
0,051000	1,274567	4,999847
0,052000	1,138458	4,999847
0,053000	1,278687	4,999847
0,054000	1,112366	4,635925
0,055000	1,299438	3,646393
0,056000	1,105652	4,677124
0,057000	1,279297	4,283600
0,058000	1,149292	4,999847
0,059000	1,244659	4,999847
0,060000	1,189575	4,999847
0,061000	1,214600	4,999847
0,062000	1,226044	4,999847
0,063000	1,187439	4,999847
0,064000	1,259460	4,859009
0,065000	1,164246	4,871674
0,066000	1,290436	4,184265
0,067000	1,143036	4,564972
0,068000	1,317902	4,548035
0,069000	1,123962	4,999847
0,070000	1,338348	4,999847
0,071000	1,138306	4,999847
0,072000	1,301422	4,999847
0,073000	1,185913	4,999847
0,074000	1,264954	4,716034
0,075000	1,227875	4,322968
0,076000	1,232910	4,416656
0,077000	1,266785	3,353271
0,078000	1,204529	4,999847
0,079000	1,301880	4,999847
0,080000	1,179504	4,999847
0,081000	1,333466	4,999847
0,082000	1,157379	4,999847
0,083000	1,362152	4,999847
0,084000	1,137848	4,883270
0,085000	1,364288	4,293365
0,086000	1,175385	3,464661
0,087000	1,321716	4,999847
0,088000	1,224976	4,579926
0,089000	1,284027	4,685516
0,090000	1,269073	4,999847
0,091000	1,250763	4,999847
0,092000	1,309204	4,999847
0,093000	1,221161	4,999847
0,094000	1,345062	4,745026
0,095000	1,195526	4,152527
0,096000	1,378021	4,184875
0,097000	1,172638	4,085388
0,098000	1,407623	4,999847
0,099000	1,162262	4,999847
0,100000	1,385651	4,999847
0,101000	1,215820	4,999847
0,102000	1,342010	4,999847
0,103000	1,266632	4,999847
0,104000	1,303101	4,999847
0,105000	1,312256	4,448242
0,106000	1,268768	2,888947
0,107000	1,354065	4,999847
0,108000	1,239319	4,083099
0,109000	1,390686	4,999847
0,110000	1,213074	4,999847
0,111000	1,424255	4,999847
0,112000	1,190186	4,999847
0,113000	1,451874	4,999847
0,114000	1,202698	4,860992
0,115000	1,407471	4,403381
0,116000	1,260071	3,573608
0,117000	1,362610	4,244232
0,118000	1,311951	4,999847
0,119000	1,322937	4,999847
0,120000	1,359100	4,999847
0,121000	1,289062	4,999847
0,122000	1,401215	4,999847
0,123000	1,259003	4,999847
0,124000	1,438904	4,999847
0,125000	1,232758	4,999847
0,126000	1,473236	3,592834
0,127000	1,209564	4,854431
0,128000	1,479340	4,152222
0,129000	1,249542	4,999847
0,130000	1,429291	4,999847
0,131000	1,308594	4,999847
0,132000	1,384430	4,999847
0,133000	1,359711	4,999847
0,134000	1,344757	4,999847
0,135000	1,408386	4,274292
0,136000	1,311188	2,918549
0,137000	1,451569	4,917755
0,138000	1,281433	4,999847
0,139000	1,489716	4,999847
0,140000	1,256104	4,999847
0,141000	1,524200	4,999847
0,142000	1,240387	4,999847
0,143000	1,503906	4,999847
0,144000	1,301880	4,999847
0,145000	1,453247	4,932404
0,146000	1,361542	3,598175
0,147000	1,408539	4,999847
0,148000	1,414337	4,577026
0,149000	1,370392	4,999847
0,150000	1,461639	4,999847
0,151000	1,337128	4,999847
0,152000	1,504517	4,999847
0,153000	1,308136	4,999847
0,154000	1,542511	4,999847
0,155000	1,283264	3,358307
0,156000	1,576080	3,830109
0,157000	1,293182	4,677429
0,158000	1,529083	4,993896
0,159000	1,358643	4,999847
0,160000	1,479187	4,999847
0,161000	1,418152	4,999847
0,162000	1,436462	4,999847
0,163000	1,470642	4,999847
0,164000	1,398926	4,999847
0,165000	1,517792	4,264374
0,166000	1,366577	2,887421
0,167000	1,560211	4,551086
0,168000	1,338806	4,266357
0,169000	1,598053	4,999847
0,170000	1,315002	4,999847
0,171000	1,610107	4,999847
0,172000	1,353912	4,999847
0,173000	1,555939	4,999847
0,174000	1,419373	4,999847
0,175000	1,508026	3,389740
0,176000	1,477966	4,010162
0,177000	1,466827	4,999847
0,178000	1,529694	4,999847
0,179000	1,430969	4,999847
0,180000	1,576385	4,999847
0,181000	1,400299	4,999847
0,182000	1,618347	4,999847
0,183000	1,374054	4,999847
0,184000	1,655426	4,999847
0,185000	1,354370	4,912109
0,186000	1,638794	3,714447
0,187000	1,418610	4,999847
0,188000	1,585541	4,097595
0,189000	1,483307	4,999847
0,190000	1,540222	4,999847
0,191000	1,540375	4,999847
0,192000	1,500244	4,999847
0,193000	1,590729	4,999847
0,194000	1,465759	4,999847
0,195000	1,636505	3,039551
0,196000	1,436615	4,118347
0,197000	1,677094	3,879700
0,198000	1,411438	4,750061
0,199000	1,714325	4,999847
0,200000	1,416626	4,999847
0,201000	1,667938	4,999847
0,202000	1,485443	4,999847
0,203000	1,617279	4,999847
0,204000	1,547852	4,999847
0,205000	1,573181	3,651886
0,206000	1,603394	3,559265
0,207000	1,535187	4,552460
0,208000	1,653137	4,887390
0,209000	1,503143	4,999847
0,210000	1,697540	4,999847
0,211000	1,474762	4,999847
0,212000	1,737213	4,999847
0,213000	1,451721	4,999847
0,214000	1,753845	4,999847
0,215000	1,485443	3,029938
0,216000	1,699219	3,667908
0,217000	1,553192	3,843842
0,218000	1,650543	4,999847
0,219000	1,613922	4,999847
0,220000	1,608582	4,999847
0,221000	1,667480	4,999847
0,222000	1,572266	4,999847
0,223000	1,715851	4,999847
0,224000	1,540833	4,999847
0,225000	1,759186	4,671631
0,226000	1,514893	3,957520
0,227000	1,797638	4,234314
0,228000	1,492462	4,001007
0,229000	1,785126	4,999847
0,230000	1,555023	4,999847
0,231000	1,731567	4,999847
0,232000	1,621246	4,999847
0,233000	1,685181	4,999847
0,234000	1,679993	4,999847
0,235000	1,645050	4,134369
0,236000	1,730499	4,048309
0,237000	1,609955	4,742737
0,238000	1,778870	4,999847
0,239000	1,581116	4,999847
0,240000	1,820526	4,999847
0,241000	1,555481	4,999847
0,242000	1,858368	4,999847
0,243000	1,555023	4,999847
0,244000	1,817322	4,999847
0,245000	1,625824	3,838196
0,246000	1,766510	3,410797
0,247000	1,689758	4,489899
0,248000	1,723022	4,406586
0,249000	1,746674	4,999847
0,250000	1,685028	4,999847
0,251000	1,797791	4,999847
0,252000	1,652985	4,999847
0,253000	1,843109	4,999847
0,254000	1,625061	4,999847
0,255000	1,885071	3,646851
0,256000	1,601410	4,104614
0,257000	1,909943	4,364929
0,258000	1,629486	4,999847
0,259000	1,858368	4,999847
0,260000	1,698761	4,999847
0,261000	1,810303	4,999847
0,262000	1,760101	4,999847
0,263000	1,767883	4,999847
0,264000	1,815033	4,999847
0,265000	1,731567	4,544830
0,266000	1,864624	3,481598
0,267000	1,700592	3,781891
0,268000	1,911469	4,999847
0,269000	1,674042	4,999847
0,270000	1,956635	4,999847
0,271000	1,650085	4,999847
0,272000	1,955414	4,999847
0,273000	1,707764	4,999847
0,274000	1,907043	4,999847
0,275000	1,774445	3,616791
0,276000	1,861725	4,366302
0,277000	1,833344	4,470825
0,278000	1,821442	4,999847
0,279000	1,887512	4,999847
0,280000	1,786194	4,999847
0,281000	1,938782	4,999847
0,282000	1,755676	4,999847
0,283000	1,988068	4,999847
0,284000	1,729126	4,838409
0,285000	2,035828	4,999847
0,286000	1,722260	3,420258
0,287000	2,008209	4,657135
0,288000	1,790924	4,520416
0,289000	1,963043	4,999847
0,290000	1,854553	4,999847
0,291000	1,922150	4,999847
0,292000	1,913452	4,999847
0,293000	1,885071	4,999847
0,294000	1,970062	4,999847
0,295000	1,851654	3,383942
0,296000	2,024231	4,309845
0,297000	1,821899	3,236694
0,298000	2,075806	4,999847
0,299000	1,795807	4,999847
0,300000	2,112732	4,999847
0,301000	1,814270	4,999847
0,302000	2,070770	4,999847
0,303000	1,883087	4,999847
0,304000	2,030640	4,999847
0,305000	1,948242	3,953247
0,306000	1,993561	3,882294
0,307000	2,010040	4,503784
0,308000	1,960297	4,999847
0,309000	2,069855	4,999847
0,310000	1,930084	4,999847
0,311000	2,126312	4,999847
0,312000	1,902771	4,999847
0,313000	2,180328	4,999847
0,314000	1,878204	4,999847
0,315000	2,191010	4,481201
0,316000	1,926422	3,829956
0,317000	2,148895	4,440002
0,318000	1,995850	4,999847
0,319000	2,109833	4,999847
0,320000	2,061157	4,999847
0,321000	2,074280	4,999847
0,322000	2,122803	4,999847
0,323000	2,041168	4,999847
0,324000	2,180634	4,999847
0,325000	2,010345	4,578400
0,326000	2,233582	3,603363
0,327000	1,982269	4,631958
0,328000	2,280121	3,998413
0,329000	1,964722	4,999847
0,330000	2,251129	4,999847
0,331000	2,030945	4,999847
0,332000	2,204590	4,999847
0,333000	2,095795	4,999847
0,334000	2,162628	4,616241
0,335000	2,157745	3,956757
0,336000	2,124329	3,762970
0,337000	2,214966	3,186646
0,338000	2,086792	4,999847
0,339000	2,264709	4,999847
0,340000	2,057190	4,999847
0,341000	1,840515	4,999847
0,342000	1,732330	4,999847
0,343000	1,691132	4,999847
0,344000	1,675568	4,999847
0,345000	1,668701	4,981079
0,346000	1,666718	3,502350
0,347000	1,665497	4,999847
0,348000	1,665039	4,927979
0,349000	1,664276	4,999847
0,350000	1,664734	4,999847
0,351000	1,664429	4,999847
0,352000	1,663971	4,999847
0,353000	1,664429	4,999847
0,354000	1,663971	4,817352
0,355000	1,663666	4,233856
0,356000	1,663513	3,359833
0,357000	1,663971	3,260345
0,358000	1,663971	4,999847
0,359000	1,663666	4,999847
0,360000	1,663513	4,999847
0,361000	1,663361	4,999847
0,362000	1,663513	4,999847
0,363000	1,487427	4,999847
0,364000	1,192627	4,999847
0,365000	1,063690	4,353638
0,366000	1,026306	3,311615
0,367000	1,009979	4,974365
0,368000	0,998840	4,771423
0,369000	1,009064	4,634552
0,370000	0,992279	4,999847
0,371000	1,016235	4,999847
0,372000	0,988770	4,999847
0,373000	1,024170	4,999847
0,374000	0,985565	4,999847
0,375000	1,031952	4,707031
0,376000	0,986786	2,811279
0,377000	1,027832	3,915558
0,378000	0,998688	4,999847
0,379000	1,021423	4,999847
0,380000	1,010284	4,999847
0,381000	1,015625	4,999847
0,382000	1,021881	4,999847
0,383000	1,010590	4,999847
0,384000	1,032867	4,999847
0,385000	1,005402	4,555206
0,386000	1,044312	3,487396
0,387000	1,001129	4,999847
0,388000	1,053772	4,213257
0,389000	0,996246	4,999847
0,390000	1,060791	4,999847
0,391000	1,004181	4,999847
0,392000	1,051331	4,999847
0,393000	1,019287	4,999847
0,394000	1,042023	4,999847
0,395000	1,033630	4,243774
0,396000	1,033630	3,253479
0,397000	1,047974	4,692993
0,398000	1,026306	4,999847
0,399000	1,061096	4,999847
0,400000	1,019135	4,999847
0,401000	1,074371	4,999847
0,402000	1,013184	4,999847
0,403000	1,086273	4,999847
0,404000	1,007690	4,999847
0,405000	1,086731	4,364319
0,406000	1,024017	3,726959
0,407000	1,074371	4,999847
0,408000	1,043091	4,446411
0,409000	1,062775	4,999847
0,410000	1,061707	4,999847
0,411000	1,052399	4,999847
0,412000	1,078339	4,999847
0,413000	1,042938	4,999847
0,414000	1,094513	4,999847
0,415000	1,034393	4,269257
0,416000	1,109009	2,962799
0,417000	1,026459	4,364777
0,418000	1,123505	4,999847
0,419000	1,025696	4,999847
0,420000	1,113434	4,999847
0,421000	1,049194	4,999847
0,422000	1,097870	4,999847
0,423000	1,071625	4,999847
0,424000	1,083069	4,999847
0,425000	1,091766	4,458008
0,426000	1,070404	3,429413
0,427000	1,111145	4,581299
0,428000	1,058960	4,090576
0,429000	1,128998	4,999847
0,430000	1,048126	4,999847
0,431000	1,145477	4,999847
0,432000	1,039581	4,999847
0,433000	1,157990	4,999847
0,434000	1,048889	4,999847
0,435000	1,138763	4,329071
0,436000	1,076202	3,275909
0,437000	1,119080	3,719177
0,438000	1,101379	4,902344
0,439000	1,102905	4,999847
0,440000	1,123505	4,999847
0,441000	1,086121	4,999847
0,442000	1,145782	4,999847
0,443000	1,073761	4,999847
0,444000	1,165619	4,999847
0,445000	1,061707	4,564209
0,446000	1,184235	3,618469
0,447000	1,050568	4,127808
0,448000	1,184998	3,524017
0,449000	1,075134	4,999847
0,450000	1,161041	4,999847
0,451000	1,105957	4,999847
0,452000	1,139679	4,999847
0,453000	1,133728	4,999847
0,454000	1,120758	4,999847
0,455000	1,159210	3,579254
0,456000	1,103668	3,052673
0,457000	1,182709	4,303436
0,458000	1,088257	4,999847
0,459000	1,204681	4,999847
0,460000	1,074677	4,999847
0,461000	1,224670	4,999847
0,462000	1,070251	4,999847
0,463000	1,210175	4,999847
0,464000	1,105042	4,999847
0,465000	1,183319	4,809570
0,466000	1,138458	3,605194
0,467000	1,159363	4,730225
0,468000	1,168671	3,893127
0,469000	1,138458	4,999847
0,470000	1,196747	4,999847
0,471000	1,119385	4,999847
0,472000	1,221924	4,999847
0,473000	1,102142	4,999847
0,474000	1,244812	4,999847
0,475000	1,087036	4,692688
0,476000	1,263275	3,296967
0,477000	1,098175	3,531494
0,478000	1,233368	4,999847
0,479000	1,137238	4,999847
0,480000	1,203918	4,999847
0,481000	1,172791	4,999847
0,482000	1,177673	4,999847
0,483000	1,205597	4,999847
0,484000	1,154633	4,999847
0,485000	1,232605	4,999847
0,486000	1,348419	3,698730
0,487000	1,360321	4,695740
0,488000	1,170044	3,566589
0,489000	1,246185	4,999847
0,490000	1,179047	4,999847
0,491000	1,205139	4,999847
0,492000	1,210022	4,999847
0,493000	1,177826	4,999847
0,494000	1,241608	4,999847
0,495000	1,154938	4,426422
0,496000	1,271057	3,464661
0,497000	1,134644	4,210358
0,498000	1,297913	4,958496
0,499000	1,116180	4,999847
0,500000	1,321106	4,999847
0,501000	1,124420	4,999847
0,502000	1,287384	4,999847
0,503000	1,170044	4,999847
0,504000	1,252136	4,999847
0,505000	1,211395	4,821320
0,506000	1,221619	3,910217
0,507000	1,248322	4,583588
0,508000	1,194000	3,531647
0,509000	1,282349	4,999847
0,510000	1,169586	4,999847
0,511000	1,313019	4,999847
0,512000	1,148834	4,999847
0,513000	1,341553	4,999847
0,514000	1,129608	4,999847
0,515000	1,349335	4,707031
0,516000	1,159973	3,509979
0,517000	1,308746	4,703979
0,518000	1,207886	4,773254
0,519000	1,271667	4,999847
0,520000	1,250763	4,999847
0,521000	1,238861	4,999847
0,522000	1,289825	4,999847
0,523000	1,210785	4,999847
0,524000	1,325073	4,999847
0,525000	1,185455	4,257050
0,526000	1,357422	3,927460
0,527000	1,163177	4,999847
0,528000	1,386414	3,509216
0,529000	1,148834	4,999847
0,530000	1,371460	4,999847
0,531000	1,198883	4,999847
0,532000	1,328888	4,999847
0,533000	1,248322	4,999847
0,534000	1,290894	4,999847
0,535000	1,293488	3,838348
0,536000	1,257629	3,224640
0,537000	1,334381	4,057922
0,538000	1,227875	4,786987
0,539000	1,369629	4,999847
0,540000	1,202087	4,999847
0,541000	1,403046	4,999847
0,542000	1,179504	4,999847
0,543000	1,430511	4,999847
0,544000	1,184845	4,999847
0,545000	1,392365	4,399414
0,546000	1,241455	3,643646
0,547000	1,348724	4,999847
0,548000	1,292419	3,455658
0,549000	1,310120	4,999847
0,550000	1,338348	4,999847
0,551000	1,275940	4,999847
0,552000	1,379547	4,999847
0,553000	1,246643	4,999847
0,554000	1,416779	4,999847
0,555000	1,220245	3,842926
0,556000	1,450348	3,467255
0,557000	1,197510	3,438568
0,558000	1,463165	4,976654
0,559000	1,229553	4,999847
0,560000	1,414185	4,999847
0,561000	1,287994	4,999847
0,562000	1,370239	4,999847
0,563000	1,340027	4,999847
0,564000	1,331177	4,999847
0,565000	1,385956	4,244385
0,566000	1,296844	4,019928
0,567000	1,428528	4,450378
0,568000	1,267395	3,538971
0,569000	1,466064	4,999847
0,570000	1,241760	4,999847
0,571000	1,500854	4,999847
0,572000	1,221924	4,999847
0,573000	1,487579	4,999847
0,574000	1,279297	4,999847
0,575000	1,437225	4,539185
0,576000	1,338196	3,270721
0,577000	1,392670	3,181000
0,578000	1,390991	4,966278
0,579000	1,354675	4,999847
0,580000	1,437836	4,999847
0,581000	1,321259	4,999847
0,582000	1,479645	4,999847
0,583000	1,291962	4,999847
0,584000	1,517944	4,999847
0,585000	1,267090	4,999847
0,586000	1,551971	4,043884
0,587000	1,269226	4,997864
0,588000	1,511536	3,582458
0,589000	1,334076	4,999847
0,590000	1,461945	4,999847
0,591000	1,392670	4,999847
0,592000	1,418915	4,999847
0,593000	1,445618	4,999847
0,594000	1,381226	4,999847
0,595000	1,492310	4,691467
0,596000	1,349030	3,474274
0,597000	1,534424	3,921356
0,598000	1,320953	4,644623
0,599000	1,572113	4,999847
0,600000	1,296692	4,999847
0,601000	1,591339	4,999847
0,602000	1,327515	4,999847
0,603000	1,538086	4,999847
0,604000	1,392822	4,999847
0,605000	1,489563	4,712372
0,606000	1,450958	4,389038
0,607000	1,447601	4,343567
0,608000	1,503296	3,757172
0,609000	1,411591	4,999847
0,610000	1,549683	4,999847
0,611000	1,380157	4,999847
0,612000	1,591339	4,999847
0,613000	1,353302	4,999847
0,614000	1,628876	4,999847
0,615000	1,331329	4,999847
0,616000	1,620331	3,272247
0,617000	1,390533	4,284973
0,618000	1,566772	4,999847
0,619000	1,455231	4,999847
0,620000	1,519928	4,999847
0,621000	1,512451	4,999847
0,622000	1,479797	4,999847
0,623000	1,563568	4,999847
0,624000	1,445160	4,999847
0,625000	1,609192	4,851379
0,626000	1,415710	3,653259
0,627000	1,649933	4,674072
0,628000	1,389923	4,349976
0,629000	1,686859	4,999847
0,630000	1,387939	4,999847
0,631000	1,648865	4,999847
0,632000	1,456451	4,999847
0,633000	1,597290	4,999847
0,634000	1,519012	4,999847
0,635000	1,553192	4,987030
0,636000	1,575165	3,249207
0,637000	1,514435	3,173981
0,638000	1,625061	4,999847
0,639000	1,481323	4,999847
0,640000	1,669312	4,999847
0,641000	1,453247	4,999847
0,642000	1,709442	4,999847
0,643000	1,429138	4,999847
0,644000	1,733398	4,999847
0,645000	1,453705	4,999847
0,646000	1,678467	4,027405
0,647000	1,523132	4,206238
0,648000	1,629639	3,910217
0,649000	1,584625	4,999847
0,650000	1,586609	4,999847
0,651000	1,638641	4,999847
0,652000	1,550598	4,999847
0,653000	1,687469	4,999847
0,654000	1,519012	4,999847
0,655000	1,730804	4,999847
0,656000	1,492462	2,879486
0,657000	1,769714	4,732208
0,658000	1,469269	4,999847
0,659000	1,765442	4,999847
0,660000	1,524963	4,999847
0,661000	1,711121	4,999847
0,662000	1,591644	4,999847
0,663000	1,664124	4,999847
0,664000	1,650543	4,999847
0,665000	1,622925	4,999847
0,666000	1,703186	3,580627
0,667000	1,588593	2,562256
0,668000	1,750336	4,468842
0,669000	1,558685	4,999847
0,670000	1,792450	4,999847
0,671000	1,533356	4,999847
0,672000	1,830139	4,999847
0,673000	1,525116	4,999847
0,674000	1,795959	4,999847
0,675000	1,594391	4,664612
0,676000	1,744232	2,541351
0,677000	1,659088	3,497009
0,678000	1,699371	4,828644
0,679000	1,716461	4,999847
0,680000	1,661377	4,999847
0,681000	1,768036	4,999847
0,682000	1,627655	4,999847
0,683000	1,813965	4,999847
0,684000	1,600037	4,999847
0,685000	1,854401	4,999847
0,686000	1,576233	3,177948
0,687000	1,884766	4,205475
0,688000	1,596680	3,743591
0,689000	1,832886	4,999847
0,690000	1,666412	4,999847
0,691000	1,783295	4,999847
0,692000	1,728973	4,999847
0,693000	1,741180	4,999847
