LabVIEW Measurement	
Writer_Version	2
Reader_Version	2
Separator	Tab
Decimal_Separator	,
Multi_Headings	Yes
X_Columns	One
Time_Pref	Absolute
Operator	d.nicolai
Date	2023/11/09
Time	16:37:39,5865123999996968043
***End_of_Header***	
	
Channels	2		
Samples	1000	1000	
Date	2023/11/09	2023/11/09	
Time	16:37:58,9705122999994979714	16:37:58,9705122999994979714	
Y_Unit_Label	Volts	Volts	
X_Dimension	Time	Time	
X0	0,0000000000000000E+0	0,0000000000000000E+0	
Delta_X	0,001000	0,001000	
***End_of_Header***			
X_Value	powebox	triggerbox	Comment
0,000000	1,663818	1,060333
0,001000	1,663666	4,999847
0,002000	1,663971	4,999847
0,003000	1,663818	4,999847
0,004000	1,663361	4,999847
0,005000	1,663513	4,999847
0,006000	1,663818	4,999847
0,007000	1,347961	4,999847
0,008000	1,119232	4,999847
0,009000	1,057129	4,224701
0,010000	1,003571	2,708130
0,011000	1,021271	4,761658
0,012000	0,984497	4,999847
0,013000	1,022339	4,999847
0,014000	0,982513	4,999847
0,015000	1,019440	4,999847
0,016000	0,992432	4,999847
0,017000	1,013947	4,999847
0,018000	1,002808	4,923401
0,019000	1,008453	3,874969
0,020000	1,012421	3,385620
0,021000	1,003723	4,999847
0,022000	1,023102	4,972687
0,023000	0,999603	4,999847
0,024000	1,032715	4,999847
0,025000	0,995331	4,999847
0,026000	1,042175	4,999847
0,027000	0,991974	4,999847
0,028000	1,050110	4,999847
0,029000	0,997162	4,641266
0,030000	1,042633	4,526215
0,031000	1,011810	3,765869
0,032000	1,034241	4,469147
0,033000	1,025085	4,999847
0,034000	1,026917	4,999847
0,035000	1,038818	4,999847
0,036000	1,020050	4,999847
0,037000	1,050262	4,999847
0,038000	1,013641	4,999847
0,039000	1,062469	3,766327
0,040000	1,007996	3,814087
0,041000	1,073608	4,072723
0,042000	1,003418	4,999847
0,043000	1,076355	4,999847
0,044000	1,016846	4,999847
0,045000	1,064911	4,999847
0,046000	1,034088	4,999847
0,047000	1,054230	4,999847
0,048000	1,050873	4,999847
0,049000	1,044464	3,999023
0,050000	1,067047	3,797150
0,051000	1,036072	4,017181
0,052000	1,082153	4,084625
0,053000	1,028595	4,999847
0,054000	1,096497	4,999847
0,055000	1,021118	4,999847
0,056000	1,109619	4,999847
0,057000	1,018829	4,999847
0,058000	1,103668	4,946136
0,059000	1,040192	3,770142
0,060000	1,088562	2,987976
0,061000	1,061707	4,999847
0,062000	1,075439	4,999847
0,063000	1,080933	4,999847
0,064000	1,063538	4,999847
0,065000	1,099091	4,999847
0,066000	1,052399	4,999847
0,067000	1,116180	4,999847
0,068000	1,042633	4,999847
0,069000	1,132050	4,276276
0,070000	1,033478	2,652130
0,071000	1,145477	4,853821
0,072000	1,040497	4,095154
0,073000	1,128387	4,999847
0,074000	1,066284	4,999847
0,075000	1,110687	4,999847
0,076000	1,090240	4,999847
0,077000	1,094666	4,999847
0,078000	1,112518	4,999847
0,079000	1,080170	3,171387
0,080000	1,133118	3,706970
0,081000	1,067505	4,999847
0,082000	1,152496	4,371033
0,083000	1,056519	4,999847
0,084000	1,170044	4,999847
0,085000	1,045532	4,999847
0,086000	1,174469	4,999847
0,087000	1,065826	4,999847
0,088000	1,151733	4,999847
0,089000	1,095734	3,577881
0,090000	1,131287	3,754425
0,091000	1,121979	4,999847
0,092000	1,112976	3,800049
0,093000	1,146393	4,999847
0,094000	1,097107	4,999847
0,095000	1,169434	4,999847
0,096000	1,082001	4,999847
0,097000	1,190033	4,999847
0,098000	1,069336	4,999847
0,099000	1,209564	2,857513
0,100000	1,061707	2,831726
0,101000	1,199799	4,999847
0,102000	1,094818	4,999847
0,103000	1,174469	4,999847
0,104000	1,127167	4,999847
0,105000	1,151123	4,999847
0,106000	1,156464	4,999847
0,107000	1,130829	4,999847
0,108000	1,183167	4,999847
0,109000	1,112823	4,220734
0,110000	1,207428	3,619080
0,111000	1,096497	3,018951
0,112000	1,230469	4,703522
0,113000	1,081848	4,999847
0,114000	1,250458	4,999847
0,115000	1,088257	4,999847
0,116000	1,224060	4,999847
0,117000	1,125946	4,999847
0,118000	1,195068	4,896088
0,119000	1,160736	3,944092
0,120000	1,170349	4,760284
0,121000	1,192322	4,795990
0,122000	1,147766	4,999847
0,123000	1,221313	4,999847
0,124000	1,127472	4,999847
0,125000	1,247406	4,999847
0,126000	1,109619	4,999847
0,127000	1,271820	4,999847
0,128000	1,094055	4,917450
0,129000	1,290283	4,134216
0,130000	1,371918	4,277496
0,131000	1,219025	4,165802
0,132000	1,261902	4,006500
0,133000	1,146088	4,999847
0,134000	1,270142	4,999847
0,135000	1,119843	4,999847
0,136000	1,291656	4,999847
0,137000	1,101837	4,999847
0,138000	1,295319	4,795837
0,139000	1,132355	3,648682
0,140000	1,259613	3,030548
0,141000	1,175079	4,999847
0,142000	1,227875	4,999847
0,143000	1,213379	4,999847
0,144000	1,198883	4,999847
0,145000	1,248322	4,999847
0,146000	1,174164	4,999847
0,147000	1,279907	4,999847
0,148000	1,151886	4,999847
0,149000	1,308899	4,624176
0,150000	1,132202	4,242859
0,151000	1,335297	4,009247
0,152000	1,121368	3,908234
0,153000	1,318817	4,999847
0,154000	1,168060	4,999847
0,155000	1,280212	4,999847
0,156000	1,212921	4,999847
0,157000	1,246033	4,999847
0,158000	1,253510	4,752045
0,159000	1,216431	3,984070
0,160000	1,290131	3,619537
0,161000	1,190033	4,029999
0,162000	1,322632	4,600983
0,163000	1,166992	4,999847
0,164000	1,352844	4,999847
0,165000	1,146393	4,999847
0,166000	1,378632	4,999847
0,167000	1,156006	4,999847
0,168000	1,340179	4,890442
0,169000	1,206818	3,942719
0,170000	1,300049	4,470520
0,171000	1,253510	4,405212
0,172000	1,264954	4,389648
0,173000	1,295471	4,999847
0,174000	1,234283	4,999847
0,175000	1,333313	4,999847
0,176000	1,206818	4,999847
0,177000	1,367187	4,999847
0,178000	1,182404	4,624023
0,179000	1,398010	3,705139
0,180000	1,161652	2,845154
0,181000	1,405945	4,731598
0,182000	1,195068	4,577637
0,183000	1,360474	4,999847
0,184000	1,248322	4,999847
0,185000	1,319427	4,999847
0,186000	1,296844	4,999847
0,187000	1,283569	4,999847
0,188000	1,339874	4,999847
0,189000	1,252136	4,788513
0,190000	1,377869	3,679352
0,191000	1,224213	4,714813
0,192000	1,413727	3,996582
0,193000	1,200409	4,999847
0,194000	1,445465	4,999847
0,195000	1,184082	4,999847
0,196000	1,427002	4,999847
0,197000	1,239014	4,999847
0,198000	1,381073	4,355011
0,199000	1,294403	3,708954
0,200000	1,339722	3,185272
0,201000	1,342621	4,296112
0,202000	1,303406	4,999847
0,203000	1,386719	4,999847
0,204000	1,271667	4,999847
0,205000	1,426239	4,999847
0,206000	1,244049	4,999847
0,207000	1,461945	4,999847
0,208000	1,219635	4,999847
0,209000	1,493835	4,850769
0,210000	1,226959	4,486389
0,211000	1,450653	3,524323
0,212000	1,287689	4,115601
0,213000	1,403503	4,999847
0,214000	1,343231	4,999847
0,215000	1,362152	4,999847
0,216000	1,392517	4,999847
0,217000	1,325836	4,999847
0,218000	1,436768	4,847107
0,219000	1,294861	3,975067
0,220000	1,476746	4,761810
0,221000	1,267395	3,712616
0,222000	1,512756	4,691925
0,223000	1,243896	4,999847
0,224000	1,526337	4,999847
0,225000	1,278076	4,999847
0,226000	1,474457	4,999847
0,227000	1,340485	4,999847
0,228000	1,427765	4,630737
0,229000	1,395874	4,999847
0,230000	1,386871	4,464264
0,231000	1,445923	3,311768
0,232000	1,351318	3,552094
0,233000	1,490173	4,999847
0,234000	1,320953	4,999847
0,235000	1,529999	4,999847
0,236000	1,294861	4,999847
0,237000	1,566772	4,999847
0,238000	1,273956	4,272003
0,239000	1,552887	4,399567
0,240000	1,335602	3,144531
0,241000	1,500549	4,291077
0,242000	1,397400	4,999847
0,243000	1,455231	4,999847
0,244000	1,452637	4,999847
0,245000	1,415405	4,999847
0,246000	1,502075	4,999847
0,247000	1,380768	4,999847
0,248000	1,546021	4,999847
0,249000	1,351166	4,488678
0,250000	1,585846	3,039246
0,251000	1,326141	3,946533
0,252000	1,621857	4,720306
0,253000	1,328888	4,999847
0,254000	1,579132	4,999847
0,255000	1,396637	4,999847
0,256000	1,528320	4,999847
0,257000	1,457977	4,999847
0,258000	1,484680	4,433441
0,259000	1,512146	4,410400
0,260000	1,446686	2,978363
0,261000	1,560974	3,311615
0,262000	1,414185	4,719543
0,263000	1,604462	4,999847
0,264000	1,385803	4,999847
0,265000	1,643677	4,999847
0,266000	1,361542	4,999847
0,267000	1,662598	4,999847
0,268000	1,393433	4,999847
0,269000	1,608734	4,202118
0,270000	1,461182	3,486023
0,271000	1,559448	4,599457
0,272000	1,520538	3,346863
0,273000	1,517181	4,999847
0,274000	1,574097	4,999847
0,275000	1,480713	4,999847
0,276000	1,621704	4,999847
0,277000	1,450043	4,999847
0,278000	1,664124	4,999847
0,279000	1,423187	4,414673
0,280000	1,702576	3,046570
0,281000	1,400452	3,584900
0,282000	1,692505	4,999847
0,283000	1,461182	4,999847
0,284000	1,638947	4,999847
0,285000	1,526642	4,999847
0,286000	1,592407	4,999847
0,287000	1,584930	4,999847
0,288000	1,552277	4,999847
0,289000	1,636658	4,999847
0,290000	1,517792	3,312073
0,291000	1,683350	4,473114
0,292000	1,488037	3,974762
0,293000	1,724548	4,999847
0,294000	1,463165	4,999847
0,295000	1,762085	4,999847
0,296000	1,460266	4,999847
0,297000	1,723175	4,999847
0,298000	1,529694	4,999847
0,299000	1,669617	4,533691
0,300000	1,592560	3,350525
0,301000	1,626587	3,776550
0,302000	1,649628	4,999847
0,303000	1,588440	4,999847
0,304000	1,700134	4,999847
0,305000	1,555786	4,999847
0,306000	1,744843	4,999847
0,307000	1,527100	4,999847
0,308000	1,785583	4,999847
0,309000	1,503448	4,918671
0,310000	1,808929	2,610016
0,311000	1,529694	4,693146
0,312000	1,754456	3,491364
0,313000	1,598663	4,907837
0,314000	1,705170	4,999847
0,315000	1,660004	4,999847
0,316000	1,662292	4,999847
0,317000	1,714630	4,999847
0,318000	1,626129	4,887543
0,319000	1,763306	3,832703
0,320000	1,594696	3,683777
0,321000	1,807556	4,428558
0,322000	1,568298	4,343567
0,323000	1,846466	4,999847
0,324000	1,544800	4,999847
0,325000	1,842346	4,999847
0,326000	1,600952	4,999847
0,327000	1,788788	4,999847
0,328000	1,667786	4,999847
0,329000	1,742249	4,874573
0,330000	1,727905	4,050446
0,331000	1,702423	4,504700
0,332000	1,780701	3,479614
0,333000	1,667786	4,999847
0,334000	1,828308	4,999847
0,335000	1,638489	4,999847
0,336000	1,871490	4,999847
0,337000	1,613159	4,999847
0,338000	1,913300	4,999847
0,339000	1,605377	3,891144
0,340000	1,882477	3,988495
0,341000	1,675568	4,010010
0,342000	1,831970	4,999847
0,343000	1,740112	4,999847
0,344000	1,787415	4,999847
0,345000	1,797180	4,999847
0,346000	1,748810	4,999847
0,347000	1,848602	4,999847
0,348000	1,715546	4,999847
0,349000	1,896362	4,526520
0,350000	1,687317	3,609161
0,351000	1,942291	3,682709
0,352000	1,663055	3,784485
0,353000	1,976318	4,999847
0,354000	1,682739	4,999847
0,355000	1,929169	4,999847
0,356000	1,751862	4,999847
0,357000	1,882629	4,999847
0,358000	1,814117	4,999847
0,359000	1,840973	4,092712
0,360000	1,869812	4,169922
0,361000	1,803436	3,387146
0,362000	1,922455	4,645081
0,363000	1,771240	4,999847
0,364000	1,972961	4,999847
0,365000	1,743469	4,999847
0,366000	2,021027	4,999847
0,367000	1,719666	4,999847
0,368000	2,030487	4,999847
0,369000	1,767578	4,511108
0,370000	1,984406	4,249878
0,371000	1,833496	4,002991
0,372000	1,942596	2,419586
0,373000	1,894531	4,999847
0,374000	1,904144	4,999847
0,375000	1,951752	4,999847
0,376000	1,869202	4,999847
0,377000	2,007599	4,999847
0,378000	1,837769	4,804840
0,379000	2,060394	3,347168
0,380000	1,809845	4,906006
0,381000	2,111053	4,351349
0,382000	1,794281	4,492950
0,383000	2,093506	4,999847
0,384000	1,861115	4,999847
0,385000	2,051392	4,999847
0,386000	1,927795	4,999847
0,387000	2,013245	4,999847
0,388000	1,990967	4,642944
0,389000	1,978455	3,823853
0,390000	2,051544	3,059540
0,391000	1,946869	4,999847
0,392000	2,109680	3,855896
0,393000	1,918793	4,999847
0,394000	2,164459	4,999847
0,395000	1,893158	4,999847
0,396000	2,209778	4,999847
0,397000	1,903687	4,999847
0,398000	2,170105	4,794617
0,399000	1,974335	3,301392
0,400000	2,129364	4,025116
0,401000	2,037659	3,903046
0,402000	2,090759	4,999847
0,403000	2,102661	4,999847
0,404000	2,057495	4,999847
0,405000	2,162628	4,999847
0,406000	2,026215	4,999847
0,407000	2,217865	4,999847
0,408000	1,996613	4,999847
0,409000	2,266998	4,105377
0,410000	1,969604	2,792206
0,411000	2,273712	4,071045
0,412000	2,006989	3,311462
0,413000	2,224884	4,999847
0,414000	2,074280	4,999847
0,415000	2,180634	4,999847
0,416000	2,136993	4,999847
0,417000	2,141266	4,999847
0,418000	2,195892	4,999847
0,419000	2,104950	4,322510
0,420000	2,250214	3,162994
0,421000	2,071686	4,024200
0,422000	1,849213	4,951019
0,423000	1,736298	4,999847
0,424000	1,692352	4,999847
0,425000	1,675873	4,999847
0,426000	1,669464	4,999847
0,427000	1,666718	4,999847
0,428000	1,665344	4,999847
0,429000	1,665344	3,913269
0,430000	1,664581	3,728027
0,431000	1,663971	4,233704
0,432000	1,663361	4,227142
0,433000	1,663818	4,999847
0,434000	1,663971	4,999847
0,435000	1,664124	4,999847
0,436000	1,664124	4,999847
0,437000	1,663818	4,999847
0,438000	1,663971	4,718933
0,439000	1,663971	4,127502
0,440000	1,663818	4,569550
0,441000	1,663818	3,287811
0,442000	1,663818	4,999847
0,443000	1,663513	4,999847
0,444000	1,319733	4,999847
0,445000	1,103973	4,999847
0,446000	1,055908	4,999847
0,447000	0,998840	4,999847
0,448000	1,023865	4,999847
0,449000	0,981750	4,045715
0,450000	1,019135	2,985535
0,451000	0,988617	4,599304
0,452000	1,012726	3,885498
0,453000	0,998993	4,999847
0,454000	1,008148	4,999847
0,455000	1,008911	4,999847
0,456000	1,002960	4,999847
0,457000	1,018219	4,999847
0,458000	0,999298	4,999847
0,459000	1,027985	3,604584
0,460000	0,995026	2,675781
0,461000	1,036835	4,243317
0,462000	0,991516	4,999847
0,463000	1,046143	4,999847
0,464000	0,993042	4,999847
0,465000	1,041870	4,999847
0,466000	1,006775	4,999847
0,467000	1,033783	4,999847
0,468000	1,020508	4,999847
0,469000	1,026764	4,559784
0,470000	1,033325	3,445282
0,471000	1,019897	4,867401
0,472000	1,045380	3,845367
0,473000	1,014557	4,999847
0,474000	1,057434	4,999847
0,475000	1,009521	4,999847
0,476000	1,068420	4,999847
0,477000	1,004028	4,999847
0,478000	1,076202	4,743195
0,479000	1,011963	4,593506
0,480000	1,065369	3,799896
0,481000	1,029510	3,101654
0,482000	1,054840	4,955139
0,483000	1,045837	4,999847
0,484000	1,045380	4,999847
0,485000	1,060944	4,999847
0,486000	1,036530	4,999847
0,487000	1,075592	4,999847
0,488000	1,029205	4,969635
0,489000	1,089630	4,463196
0,490000	1,021271	3,822937
0,491000	1,103210	3,204651
0,492000	1,015015	4,074554
0,493000	1,104126	4,999847
0,494000	1,033783	4,999847
0,495000	1,089630	4,999847
0,496000	1,054382	4,999847
0,497000	1,076202	4,999847
0,498000	1,074677	4,999847
0,499000	1,064758	4,520569
0,500000	1,092834	4,478607
0,501000	1,053467	3,087616
0,502000	1,109314	4,999847
0,503000	1,044159	4,999847
0,504000	1,125488	4,999847
0,505000	1,035004	4,999847
0,506000	1,139374	4,999847
0,507000	1,032867	4,999847
0,508000	1,129761	4,999847
0,509000	1,058502	4,277649
0,510000	1,111908	3,100739
0,511000	1,082764	4,395752
0,512000	1,096344	4,775391
0,513000	1,105042	4,982605
0,514000	1,081238	4,999847
0,515000	1,125641	4,999847
0,516000	1,069031	4,999847
0,517000	1,144714	4,999847
0,518000	1,057281	4,530640
0,519000	1,162567	3,737335
0,520000	1,046753	2,675171
0,521000	1,175232	4,722443
0,522000	1,057281	4,999847
0,523000	1,154175	4,999847
0,524000	1,086426	4,999847
0,525000	1,133423	4,999847
0,526000	1,113129	4,999847
0,527000	1,114960	4,999847
0,528000	1,138306	4,999847
0,529000	1,098633	4,999847
0,530000	1,160889	3,280334
0,531000	1,083984	4,840851
0,532000	1,182098	3,990021
0,533000	1,070709	4,999847
0,534000	1,201935	4,999847
0,535000	1,058655	4,999847
0,536000	1,203003	4,999847
0,537000	1,084747	4,999847
0,538000	1,177216	4,872589
0,539000	1,117249	4,252167
0,540000	1,153870	3,299561
0,541000	1,147308	4,999847
0,542000	1,133270	4,999847
0,543000	1,174316	4,999847
0,544000	1,114960	4,999847
0,545000	1,199188	4,999847
0,546000	1,098328	4,999847
0,547000	1,221924	4,999847
0,548000	1,084290	4,999847
0,549000	1,243744	4,936218
0,550000	1,079407	3,692169
0,551000	1,228180	4,958496
0,552000	1,115875	4,260101
0,553000	1,199188	4,832306
0,554000	1,150665	4,999847
0,555000	1,173553	4,999847
0,556000	1,182404	4,999847
0,557000	1,150360	4,999847
0,558000	1,211395	4,999847
0,559000	1,130066	3,779144
0,560000	1,238251	2,875061
0,561000	1,112366	4,118347
0,562000	1,262817	4,999847
0,563000	1,096802	4,999847
0,564000	1,282196	4,999847
0,565000	1,106873	4,999847
0,566000	1,302032	4,999847
0,567000	1,374207	4,999847
0,568000	1,401062	4,999847
0,569000	1,411438	4,286346
0,570000	1,415710	3,045044
0,571000	1,417236	4,678497
0,572000	1,417999	4,137115
0,573000	1,419983	4,999847
0,574000	1,263123	4,999847
0,575000	1,253815	4,999847
0,576000	1,165619	4,999847
0,577000	1,255341	4,999847
0,578000	1,135254	4,999847
0,579000	1,278534	4,217377
0,580000	1,115417	4,298706
0,581000	1,302032	4,171448
0,582000	1,105347	4,866638
0,583000	1,287384	4,999847
0,584000	1,148071	4,999847
0,585000	1,252289	4,999847
0,586000	1,189270	4,999847
0,587000	1,220856	4,999847
0,588000	1,227264	4,999847
0,589000	1,193390	4,160309
0,590000	1,261292	4,014740
0,591000	1,169128	4,788818
0,592000	1,292267	4,729004
0,593000	1,147614	4,999847
0,594000	1,320496	4,999847
0,595000	1,128540	4,999847
0,596000	1,344910	4,999847
0,597000	1,136627	4,999847
0,598000	1,309509	4,999847
0,599000	1,184845	3,555756
0,600000	1,272278	3,435211
0,601000	1,228485	3,872223
0,602000	1,239624	4,999847
0,603000	1,267853	4,999847
0,604000	1,210327	4,999847
0,605000	1,303101	4,999847
0,606000	1,185150	4,999847
0,607000	1,335449	4,999847
0,608000	1,161804	4,999847
0,609000	1,364899	3,708496
0,610000	1,142273	3,952026
0,611000	1,372528	4,459839
0,612000	1,174316	3,294220
0,613000	1,330261	4,999847
0,614000	1,224670	4,999847
0,615000	1,291809	4,999847
0,616000	1,269531	4,999847
0,617000	1,257629	4,999847
0,618000	1,310425	4,999847
0,619000	1,227875	3,448486
0,620000	1,346893	3,392487
0,621000	1,201019	4,630127
0,622000	1,380615	4,639587
0,623000	1,177826	4,999847
0,624000	1,410828	4,999847
0,625000	1,161957	4,999847
0,626000	1,395416	4,999847
0,627000	1,139679	4,999847
0,628000	1,044617	4,999847
0,629000	1,009521	4,147644
0,630000	0,996094	4,852905
0,631000	0,990753	4,691010
0,632000	1,333923	3,823395
0,633000	1,142883	4,999847
0,634000	1,413269	4,999847
0,635000	1,196442	4,999847
0,636000	1,376038	4,999847
0,637000	1,255188	4,999847
0,638000	1,335297	4,739838
0,639000	1,304932	4,018250
0,640000	1,298065	3,785858
0,641000	1,349640	4,726715
0,642000	1,265869	4,999847
0,643000	1,389771	4,999847
0,644000	1,237488	4,999847
0,645000	1,425781	4,999847
0,646000	1,212769	4,999847
0,647000	1,457977	4,999847
0,648000	1,192169	4,999847
0,649000	1,447754	3,487091
0,650000	1,246185	4,201660
0,651000	1,399384	4,415436
0,652000	1,302338	3,696136
0,653000	1,356964	4,999847
0,654000	1,352539	4,999847
0,655000	1,319733	4,999847
0,656000	1,397552	4,999847
0,657000	1,286774	4,999847
0,658000	1,438293	4,846802
0,659000	1,258392	3,752289
0,660000	1,474915	4,062042
0,661000	1,233826	3,751526
0,662000	1,508179	4,945679
0,663000	1,234283	4,999847
0,664000	1,470947	4,999847
0,665000	1,296234	4,999847
0,666000	1,422272	4,999847
0,667000	1,353149	4,999847
0,668000	1,380157	4,999847
0,669000	1,403656	4,442139
0,670000	1,343079	4,051056
0,671000	1,449127	4,999847
0,672000	1,311340	4,443665
0,673000	1,490021	4,999847
0,674000	1,283264	4,999847
0,675000	1,527100	4,999847
0,676000	1,259155	4,999847
0,677000	1,546631	4,999847
0,678000	1,286926	4,905243
0,679000	1,494904	4,563751
0,680000	1,350861	4,105835
0,681000	1,447296	4,443359
0,682000	1,407318	4,999847
0,683000	1,405945	4,999847
0,684000	1,457977	4,999847
0,685000	1,370239	4,999847
0,686000	1,503601	4,999847
0,687000	1,338959	4,999847
0,688000	1,544647	4,999847
0,689000	1,311951	4,106293
0,690000	1,581573	3,802795
0,691000	1,288910	4,512939
0,692000	1,574554	4,229126
0,693000	1,345825	4,999847
