LabVIEW Measurement	
Writer_Version	2
Reader_Version	2
Separator	Tab
Decimal_Separator	,
Multi_Headings	Yes
X_Columns	One
Time_Pref	Absolute
Operator	d.nicolai
Date	2023/11/09
Time	16:37:39,5865123999996968043
***End_of_Header***	
	
Channels	2		
Samples	1000	1000	
Date	2023/11/09	2023/11/09	
Time	16:38:02,2535127999998692296	16:38:02,2535127999998692296	
Y_Unit_Label	Volts	Volts	
X_Dimension	Time	Time	
X0	0,0000000000000000E+0	0,0000000000000000E+0	
Delta_X	0,001000	0,001000	
***End_of_Header***			
X_Value	powebox	triggerbox	Comment
0,000000	1,244507	0,887909
0,001000	1,477509	4,797211
0,002000	1,307373	4,999847
0,003000	1,429749	4,999847
0,004000	1,364594	4,999847
0,005000	1,387634	4,999847
0,006000	1,415558	4,999847
0,007000	1,350861	4,999847
0,008000	1,461182	4,999847
0,009000	1,318665	4,379730
0,010000	1,502380	3,233948
0,011000	1,290741	4,000549
0,012000	1,539154	4,704285
0,013000	1,266937	4,999847
0,014000	1,555786	4,999847
0,015000	1,299133	4,999847
0,016000	1,503296	4,999847
0,017000	1,362915	4,999847
0,018000	1,455383	4,999847
0,019000	1,419830	3,592377
0,020000	1,414490	3,624725
0,021000	1,470795	4,378357
0,022000	1,378479	4,999847
0,023000	1,516266	4,999847
0,024000	1,347198	4,999847
0,025000	1,557007	4,999847
0,026000	1,320343	4,999847
0,027000	1,593933	4,999847
0,028000	1,298828	4,999847
0,029000	1,583099	3,759460
0,030000	1,359100	2,995605
0,031000	1,530151	4,726257
0,032000	1,422424	4,061584
0,033000	1,484070	4,999847
0,034000	1,478424	4,999847
0,035000	1,443939	4,999847
0,036000	1,528931	4,999847
0,037000	1,409760	4,999847
0,038000	1,574249	4,999847
0,039000	1,379852	3,038025
0,040000	1,614380	3,545380
0,041000	1,354523	4,999847
0,042000	1,650696	4,631653
0,043000	1,354523	4,999847
0,044000	1,610870	4,999847
0,045000	1,422729	4,999847
0,046000	1,559906	4,999847
0,047000	1,484833	4,999847
0,048000	1,515350	4,999847
0,049000	1,540070	3,801270
0,050000	1,477203	4,340210
0,051000	1,589203	4,471436
0,052000	1,444550	4,501801
0,053000	1,633606	4,999847
0,054000	1,416168	4,999847
0,055000	1,673126	4,999847
0,056000	1,392365	4,999847
0,057000	1,695099	4,999847
0,058000	1,420898	4,999847
0,059000	1,640930	3,730774
0,060000	1,488495	2,846527
0,061000	1,591644	4,999847
0,062000	1,549530	4,999847
0,063000	1,549377	4,999847
0,064000	1,602936	4,999847
0,065000	1,512299	4,999847
0,066000	1,650848	4,999847
0,067000	1,481781	4,999847
0,068000	1,694336	4,999847
0,069000	1,454468	3,424988
0,070000	1,732788	3,956299
0,071000	1,431427	3,719482
0,072000	1,726227	4,511871
0,073000	1,489868	4,999847
0,074000	1,672058	4,999847
0,075000	1,555786	4,999847
0,076000	1,625214	4,999847
0,077000	1,614075	4,999847
0,078000	1,584930	4,999847
0,079000	1,666412	3,024445
0,080000	1,550140	3,408356
0,081000	1,713409	4,999847
0,082000	1,520386	4,786224
0,083000	1,755066	4,999847
0,084000	1,494598	4,999847
0,085000	1,792755	4,999847
0,086000	1,489258	4,999847
0,087000	1,756744	4,999847
0,088000	1,558685	4,960937
0,089000	1,702881	3,984375
0,090000	1,621857	4,432831
0,091000	1,659698	3,636169
0,092000	1,679840	4,999847
0,093000	1,621552	4,999847
0,094000	1,730499	4,999847
0,095000	1,588440	4,999847
0,096000	1,775818	4,999847
0,097000	1,559906	4,999847
0,098000	1,815948	4,548798
0,099000	1,535950	3,377075
0,100000	1,842194	3,897552
0,101000	1,558685	4,798126
0,102000	1,788788	4,999847
0,103000	1,628113	4,999847
0,104000	1,739502	4,999847
0,105000	1,690063	4,999847
0,106000	1,697083	4,999847
0,107000	1,745605	4,999847
0,108000	1,660461	4,931488
0,109000	1,794739	4,782410
0,110000	1,629791	4,576263
0,111000	1,839142	3,436279
0,112000	1,603088	4,500580
0,113000	1,879425	4,999847
0,114000	1,579742	4,999847
0,115000	1,880341	4,999847
0,116000	1,631927	4,999847
0,117000	1,827850	4,999847
0,118000	1,699677	4,385834
0,119000	1,780853	4,060059
0,120000	1,759338	4,085236
0,121000	1,740875	4,492493
0,122000	1,813354	4,999847
0,123000	1,705933	4,999847
0,124000	1,860657	4,999847
0,125000	1,676483	4,999847
0,126000	1,905975	4,999847
0,127000	1,650696	4,999847
0,128000	1,950073	4,999847
0,129000	1,639557	4,461670
0,130000	1,924591	2,994385
0,131000	1,708984	4,593048
0,132000	1,875610	4,219055
0,133000	1,773529	4,999847
0,134000	1,831055	4,999847
0,135000	1,831207	4,999847
0,136000	1,792145	4,999847
0,137000	1,883240	4,999847
0,138000	1,758881	4,438629
0,139000	1,933746	3,893280
0,140000	1,729431	3,099823
0,141000	1,981354	4,999847
0,142000	1,704559	4,999847
0,143000	2,020111	4,999847
0,144000	1,720276	4,999847
0,145000	1,975403	4,999847
0,146000	1,789246	4,999847
0,147000	1,930847	4,999847
0,148000	1,851349	4,999847
0,149000	1,890259	4,999847
0,150000	1,908417	2,398987
0,151000	1,853180	4,347839
0,152000	1,963654	4,067841
0,153000	1,820221	4,999847
0,154000	2,015686	4,999847
0,155000	1,791229	4,999847
0,156000	2,066498	4,999847
0,157000	1,767120	4,999847
0,158000	2,080536	4,675446
0,159000	1,809540	4,049683
0,160000	2,036285	3,388672
0,161000	1,876831	4,999847
0,162000	1,996002	4,999847
0,163000	1,940002	4,999847
0,164000	1,959686	4,999847
0,165000	2,000885	4,999847
0,166000	1,926270	4,999847
0,167000	2,058258	4,999847
0,168000	1,896210	4,999847
0,169000	2,113800	4,999847
0,170000	1,869202	3,344574
0,171000	2,165833	4,593964
0,172000	1,850281	4,786224
0,173000	2,153168	4,999847
0,174000	1,916809	4,999847
0,175000	2,112122	4,999847
0,176000	1,985321	4,999847
0,177000	2,074585	4,999847
0,178000	2,050476	4,786072
0,179000	2,040253	4,347839
0,180000	2,111664	3,610840
0,181000	2,008820	4,313660
0,182000	2,168884	4,999847
0,183000	1,979523	4,999847
0,184000	2,222595	4,999847
0,185000	1,952667	4,999847
0,186000	2,266235	4,999847
0,187000	1,957855	4,999847
0,188000	2,221985	4,812012
0,189000	2,026672	4,819183
0,190000	2,178497	4,786987
0,191000	2,089996	4,351654
0,192000	2,137756	4,971466
0,193000	2,153168	4,999847
0,194000	2,101593	4,999847
0,195000	2,210541	4,999847
0,196000	2,067871	4,999847
0,197000	2,262115	4,999847
0,198000	2,036743	4,999847
0,199000	2,302704	3,666840
0,200000	2,008362	4,509430
0,201000	2,300110	3,990021
0,202000	1,982422	4,999847
0,203000	1,797638	4,999847
0,204000	1,716309	4,999847
0,205000	1,684875	4,999847
0,206000	1,672058	4,999847
0,207000	1,667633	4,999847
0,208000	1,665955	4,999847
0,209000	1,665192	4,879456
0,210000	1,664886	3,562775
0,211000	1,664581	3,324738
0,212000	1,664124	4,309082
0,213000	1,664276	4,999847
0,214000	1,663971	4,999847
0,215000	1,663971	4,999847
0,216000	1,663971	4,999847
0,217000	1,663971	4,999847
0,218000	1,663666	4,488983
0,219000	1,663971	3,862915
0,220000	1,663971	3,531952
0,221000	1,663361	3,253021
0,222000	1,663666	4,999847
0,223000	1,663818	4,999847
0,224000	1,460419	4,999847
0,225000	1,178589	4,999847
0,226000	1,062469	4,999847
0,227000	1,021881	4,999847
0,228000	1,011963	4,918823
0,229000	0,996399	4,966736
0,230000	1,011810	3,832092
0,231000	0,989838	4,180298
0,232000	1,018524	4,250793
0,233000	0,986176	4,999847
0,234000	1,026459	4,999847
0,235000	0,983734	4,999847
0,236000	1,029816	4,999847
0,237000	0,991364	4,999847
0,238000	1,023254	4,999847
0,239000	1,002960	3,815765
0,240000	1,017151	2,997894
0,241000	1,015015	4,969788
0,242000	1,012268	4,999847
0,243000	1,026001	4,999847
0,244000	1,006622	4,999847
0,245000	1,036377	4,999847
0,246000	1,002655	4,999847
0,247000	1,046600	4,999847
0,248000	0,998077	4,999847
0,249000	1,056519	4,397430
0,250000	0,995483	3,484344
0,251000	1,054687	4,195404
0,252000	1,011047	4,071960
0,253000	1,045227	4,999847
0,254000	1,025391	4,999847
0,255000	1,036530	4,999847
0,256000	1,039734	4,999847
0,257000	1,028290	4,999847
0,258000	1,053162	4,999847
0,259000	1,022034	4,243927
0,260000	1,065979	2,196960
0,261000	1,015472	4,999847
0,262000	1,078186	4,579010
0,263000	1,009521	4,999847
0,264000	1,088715	4,999847
0,265000	1,013947	4,999847
0,266000	1,079102	4,999847
0,267000	1,032867	4,999847
0,268000	1,066437	4,999847
0,269000	1,051178	4,983063
0,270000	1,056366	3,174591
0,271000	1,068726	3,965149
0,272000	1,046295	3,446655
0,273000	1,084595	4,999847
0,274000	1,037292	4,999847
0,275000	1,099854	4,999847
0,276000	1,028900	4,999847
0,277000	1,114349	4,999847
0,278000	1,022186	4,812927
0,279000	1,120300	4,137115
0,280000	1,036377	3,427124
0,281000	1,103668	4,743958
0,282000	1,059113	4,599152
0,283000	1,088867	4,999847
0,284000	1,080475	4,999847
0,285000	1,075897	4,999847
0,286000	1,100159	4,999847
0,287000	1,062927	4,999847
0,288000	1,118011	4,999847
0,289000	1,052399	3,825378
0,290000	1,135406	3,151398
0,291000	1,042633	4,137421
0,292000	1,150970	3,077545
0,293000	1,035614	4,999847
0,294000	1,145782	4,999847
0,295000	1,061096	4,999847
0,296000	1,126556	4,999847
0,297000	1,087036	4,999847
0,298000	1,109009	4,999847
0,299000	1,111298	3,617096
0,300000	1,093140	4,538879
0,301000	1,133423	3,592987
0,302000	1,078949	4,649963
0,303000	1,154175	4,999847
0,304000	1,066284	4,999847
0,305000	1,171875	4,999847
0,306000	1,054687	4,999847
0,307000	1,190033	4,999847
0,308000	1,058350	4,999847
0,309000	1,171265	3,754272
0,310000	1,089630	2,752380
0,311000	1,148529	4,999847
0,312000	1,118317	3,476410
0,313000	1,128387	4,999847
0,314000	1,145020	4,999847
0,315000	1,110382	4,999847
0,316000	1,169434	4,999847
0,317000	1,094513	4,999847
0,318000	1,191559	4,750214
0,319000	1,079865	3,788757
0,320000	1,212769	4,105682
0,321000	1,067352	3,459625
0,322000	1,222229	4,999847
0,323000	1,086273	4,999847
0,324000	1,194916	4,999847
0,325000	1,120453	4,999847
0,326000	1,169586	4,999847
0,327000	1,152039	4,999847
0,328000	1,146851	4,999847
0,329000	1,180878	4,826355
0,330000	1,126862	4,358826
0,331000	1,207275	4,636536
0,332000	1,109009	3,414001
0,333000	1,231384	4,999847
0,334000	1,093140	4,999847
0,335000	1,253510	4,999847
0,336000	1,081085	4,999847
0,337000	1,247559	4,999847
0,338000	1,116486	4,999847
0,339000	1,216278	3,459930
0,340000	1,153107	3,032227
0,341000	1,188660	4,646301
0,342000	1,187897	4,520264
0,343000	1,165161	4,999847
0,344000	1,218719	4,999847
0,345000	1,142731	4,999847
0,346000	1,243744	4,999847
0,347000	1,352386	4,999847
0,348000	1,394958	4,999847
0,349000	1,280670	3,501892
0,350000	1,234283	3,566437
0,351000	1,182861	4,999847
0,352000	1,238251	4,045410
0,353000	1,150055	4,999847
0,354000	1,263275	4,999847
0,355000	1,128845	4,999847
0,356000	1,288757	4,999847
0,357000	1,110992	4,999847
0,358000	1,310883	4,999847
0,359000	1,119537	3,695526
0,360000	1,278381	2,776794
0,361000	1,164093	3,961182
0,362000	1,243896	4,780579
0,363000	1,204376	4,999847
0,364000	1,213989	4,999847
0,365000	1,240997	4,999847
0,366000	1,187439	4,999847
0,367000	1,274567	4,999847
0,368000	1,163635	4,999847
0,369000	1,305084	3,565063
0,370000	1,142883	3,757324
0,371000	1,332703	4,775848
0,372000	1,124115	2,684937
0,373000	1,338959	4,999847
0,374000	1,154327	4,999847
0,375000	1,299438	4,999847
0,376000	1,201630	4,999847
0,377000	1,263733	4,999847
0,378000	1,244202	4,999847
0,379000	1,231842	3,642731
0,380000	1,282806	4,557953
0,381000	1,204071	4,406128
0,382000	1,316986	4,164581
0,383000	1,179047	4,999847
0,384000	1,348114	4,999847
0,385000	1,157227	4,999847
0,386000	1,377411	4,999847
0,387000	1,143341	4,999847
0,388000	1,362000	4,999847
0,389000	1,193237	4,401093
0,390000	1,319733	4,261475
0,391000	1,241760	3,139648
0,392000	1,282196	3,659668
0,393000	1,285858	4,999847
0,394000	1,249695	4,999847
0,395000	1,325531	4,999847
0,396000	1,221466	4,999847
0,397000	1,361542	4,999847
0,398000	1,195374	4,418640
0,399000	1,393585	3,303375
0,400000	1,173248	4,453430
0,401000	1,422577	4,088898
0,402000	1,179352	4,549408
0,403000	1,383209	4,999847
0,404000	1,234436	4,999847
0,405000	1,340027	4,999847
0,406000	1,284943	4,999847
0,407000	1,301727	4,999847
0,408000	1,330109	4,999847
0,409000	1,268311	4,189606
0,410000	1,370544	3,382568
0,411000	1,239014	4,451294
0,412000	1,407776	3,843231
0,413000	1,213226	4,999847
0,414000	1,440735	4,999847
0,415000	1,190491	4,999847
0,416000	1,452789	4,999847
0,417000	1,222992	4,999847
0,418000	1,403961	4,520874
0,419000	1,280060	4,269562
0,420000	1,360321	4,298706
0,421000	1,331635	3,825378
0,422000	1,321869	4,999847
0,423000	1,377563	4,999847
0,424000	1,288605	4,999847
0,425000	1,419067	4,999847
0,426000	1,258850	4,999847
0,427000	1,455994	4,999847
0,428000	1,233673	4,917908
0,429000	1,489868	4,975281
0,430000	1,214447	4,058990
0,431000	1,476593	4,999847
0,432000	1,271362	4,411316
0,433000	1,426849	4,999847
0,434000	1,329803	4,999847
0,435000	1,383209	4,999847
0,436000	1,381989	4,999847
0,437000	1,344910	4,999847
0,438000	1,427917	4,446259
0,439000	1,311646	4,366455
0,440000	1,469879	3,023529
0,441000	1,282806	3,441010
0,442000	1,507416	4,376373
0,443000	1,258087	4,999847
0,444000	1,541443	4,999847
0,445000	1,260986	4,999847
0,446000	1,500854	4,999847
0,447000	1,324921	4,999847
0,448000	1,451111	4,999847
0,449000	1,383209	4,281616
0,450000	1,408081	3,427277
0,451000	1,435089	4,415894
0,452000	1,370850	4,158173
0,453000	1,482086	4,999847
0,454000	1,338348	4,999847
0,455000	1,523895	4,999847
0,456000	1,310272	4,999847
0,457000	1,561127	4,999847
0,458000	1,286316	4,997253
0,459000	1,579437	4,345398
0,460000	1,317749	3,979340
0,461000	1,526337	3,177795
0,462000	1,382599	4,999847
0,463000	1,478119	4,999847
0,464000	1,440430	4,999847
0,465000	1,436310	4,999847
0,466000	1,492004	4,999847
0,467000	1,400299	4,999847
0,468000	1,538544	4,822235
0,469000	1,368866	4,608307
0,470000	1,580048	4,294891
0,471000	1,342621	3,075714
0,472000	1,617126	4,152527
0,473000	1,319885	4,999847
0,474000	1,607819	4,999847
0,475000	1,380157	4,999847
0,476000	1,554260	4,999847
0,477000	1,443939	4,999847
0,478000	1,507874	4,430695
0,479000	1,501465	4,004974
0,480000	1,467896	3,720093
0,481000	1,552277	3,815308
0,482000	1,432953	4,651642
0,483000	1,597137	4,999847
0,484000	1,403351	4,999847
0,485000	1,638489	4,999847
0,486000	1,378326	4,999847
0,487000	1,674957	4,999847
0,488000	1,376648	4,449463
0,489000	1,636200	4,176788
0,490000	1,445465	3,927460
0,491000	1,584778	4,374695
0,492000	1,508179	3,610229
0,493000	1,540070	4,779358
0,494000	1,563721	4,999847
0,495000	1,502075	4,999847
0,496000	1,613312	4,999847
0,497000	1,469116	4,999847
0,498000	1,656799	4,644012
0,499000	1,439819	3,390045
0,500000	1,696930	3,986816
0,501000	1,416626	3,681793
0,502000	1,720123	4,999847
0,503000	1,443634	4,999847
0,504000	1,666565	4,999847
0,505000	1,512299	4,999847
0,506000	1,617126	4,999847
0,507000	1,573029	4,999847
0,508000	1,574707	4,999847
0,509000	1,626892	4,986877
0,510000	1,538086	3,116608
0,511000	1,675415	4,451294
0,512000	1,506348	4,450989
0,513000	1,718597	4,999847
0,514000	1,479797	4,999847
0,515000	1,757355	4,999847
0,516000	1,456451	4,999847
0,517000	1,752167	4,999847
0,518000	1,513062	4,654846
0,519000	1,698456	4,688721
0,520000	1,579590	4,178772
0,521000	1,651306	4,133911
0,522000	1,638947	4,999847
0,523000	1,610260	4,999847
0,524000	1,691284	4,999847
0,525000	1,575623	4,999847
0,526000	1,738434	4,999847
0,527000	1,546021	4,999847
0,528000	1,780243	4,999847
0,529000	1,520691	4,421692
0,530000	1,817780	3,224335
0,531000	1,513519	4,999847
0,532000	1,783142	3,802338
0,533000	1,582947	4,706268
0,534000	1,731262	4,999847
0,535000	1,647339	4,999847
0,536000	1,686401	4,999847
0,537000	1,704712	4,999847
0,538000	1,647644	4,660797
0,539000	1,755829	4,168396
0,540000	1,614380	3,891754
0,541000	1,801300	4,039154
0,542000	1,586761	4,999847
0,543000	1,841888	4,999847
0,544000	1,562347	4,999847
0,545000	1,869965	4,999847
0,546000	1,583862	4,999847
0,547000	1,817627	4,999847
0,548000	1,653900	4,910736
0,549000	1,768494	4,358063
0,550000	1,715851	3,006897
0,551000	1,726227	4,686737
0,552000	1,770782	3,938141
0,553000	1,689148	4,999847
0,554000	1,820526	4,999847
0,555000	1,658478	4,999847
0,556000	1,864929	4,999847
0,557000	1,631470	4,999847
0,558000	1,907959	4,789734
0,559000	1,609344	4,042664
0,560000	1,912079	3,971558
0,561000	1,659393	4,869843
0,562000	1,860962	4,999847
0,563000	1,726837	4,999847
0,564000	1,813965	4,999847
0,565000	1,786804	4,999847
0,566000	1,773529	4,999847
0,567000	1,840515	4,999847
0,568000	1,738129	4,999847
0,569000	1,888885	4,280396
0,570000	1,708221	2,666016
0,571000	1,936340	4,999847
0,572000	1,681671	3,622131
0,573000	1,981964	4,999847
0,574000	1,669159	4,999847
0,575000	1,959076	4,999847
0,576000	1,738739	4,999847
0,577000	1,911621	4,999847
0,578000	1,802979	4,612579
0,579000	1,868591	3,685150
0,580000	1,860352	3,110352
0,581000	1,828918	4,999847
0,582000	1,914825	4,502258
0,583000	1,794891	4,999847
0,584000	1,966248	4,999847
0,585000	1,765289	4,999847
0,586000	2,016144	4,999847
0,587000	1,740112	4,999847
0,588000	2,057037	4,999847
0,589000	1,753387	4,999847
0,590000	2,014465	3,882294
0,591000	1,822052	4,403992
0,592000	1,971283	3,996887
0,593000	1,885071	4,999847
0,594000	1,931610	4,999847
0,595000	1,944427	4,999847
0,596000	1,896210	4,999847
0,597000	2,000732	4,999847
0,598000	1,863708	4,999847
0,599000	2,055359	4,013977
0,600000	1,834564	4,434967
0,601000	2,105103	4,430847
0,602000	1,808319	4,771118
0,603000	2,123718	4,999847
0,604000	1,850128	4,999847
0,605000	2,081146	4,999847
0,606000	1,918640	4,999847
0,607000	2,042084	4,999847
0,608000	1,984406	4,999847
0,609000	2,007141	4,472656
0,610000	2,046509	3,320618
0,611000	1,974182	4,999847
0,612000	2,105255	3,415070
0,613000	1,945038	4,999847
0,614000	2,161560	4,999847
0,615000	1,918488	4,999847
0,616000	2,214050	4,999847
0,617000	1,897888	4,999847
0,618000	2,200623	4,963379
0,619000	1,964569	4,208832
0,620000	2,158813	4,280090
0,621000	2,032776	4,173584
0,622000	2,119751	4,497986
0,623000	2,096863	4,999847
0,624000	2,083893	4,999847
0,625000	2,156677	4,999847
0,626000	2,050323	4,999847
0,627000	2,212524	4,999847
0,628000	2,019653	4,999847
0,629000	2,262878	3,858032
0,630000	1,990814	3,535614
0,631000	2,298584	4,999847
0,632000	1,993408	4,116669
0,633000	2,249451	4,999847
0,634000	2,061157	4,999847
0,635000	2,202606	4,999847
0,636000	2,124786	4,999847
0,637000	2,161407	4,999847
0,638000	2,185364	4,872284
0,639000	2,124329	3,674927
0,640000	1,881256	3,394775
0,641000	1,749420	4,999847
0,642000	1,697388	4,999847
0,643000	1,677856	4,999847
0,644000	1,670380	4,999847
0,645000	1,667175	4,999847
0,646000	1,665802	4,999847
0,647000	1,665039	4,999847
0,648000	1,664886	4,999847
0,649000	1,664276	4,068146
0,650000	1,664276	3,914642
0,651000	1,664276	4,999847
0,652000	1,663971	4,701996
0,653000	1,664276	4,999847
0,654000	1,664276	4,999847
0,655000	1,663666	4,999847
0,656000	1,663666	4,999847
0,657000	1,663818	4,999847
0,658000	1,663513	4,999847
0,659000	1,663666	3,238983
0,660000	1,663818	4,360809
0,661000	1,663666	4,699249
0,662000	1,278992	4,999847
0,663000	1,082306	4,999847
0,664000	1,053772	4,999847
0,665000	0,994110	4,999847
0,666000	1,018829	4,999847
0,667000	0,990906	4,999847
0,668000	1,009521	4,999847
0,669000	0,998688	3,938293
0,670000	1,004181	3,726654
0,671000	1,008453	4,455414
0,672000	0,999603	4,028168
0,673000	1,016541	4,999847
0,674000	0,995483	4,999847
0,675000	1,026154	4,999847
0,676000	0,992126	4,999847
0,677000	1,034698	4,999847
0,678000	0,989075	4,889984
0,679000	1,042480	3,563538
0,680000	0,993652	3,838196
0,681000	1,035461	4,026947
0,682000	1,007233	4,987640
0,683000	1,028290	4,999847
0,684000	1,020203	4,999847
0,685000	1,022034	4,999847
0,686000	1,032562	4,999847
0,687000	1,015472	4,999847
0,688000	1,043701	4,957428
0,689000	1,009827	4,278107
0,690000	1,055756	3,813324
0,691000	1,004791	3,915558
0,692000	1,066284	4,080963
0,693000	1,000061	4,999847
