LabVIEW Measurement	
Writer_Version	2
Reader_Version	2
Separator	Tab
Decimal_Separator	,
Multi_Headings	Yes
X_Columns	One
Time_Pref	Absolute
Operator	d.nicolai
Date	2023/11/09
Time	16:08:33,1425122999999267049
***End_of_Header***	
	
Channels	2		
Samples	1000	1000	
Date	2023/11/09	2023/11/09	
Time	16:08:39,5025126999997402989	16:08:39,5025126999997402989	
Y_Unit_Label	Volts	Volts	
X_Dimension	Time	Time	
X0	0,0000000000000000E+0	0,0000000000000000E+0	
Delta_X	0,001000	0,001000	
***End_of_Header***			
X_Value	powebox	triggerbox	Comment
0,000000	0,986938	0,787811
0,001000	0,978546	4,637451
0,002000	0,983734	4,445801
0,003000	0,981445	4,999847
0,004000	0,980377	4,999847
0,005000	0,983276	4,999847
0,006000	0,976715	4,999847
0,007000	0,985565	4,999847
0,008000	0,974731	4,999847
0,009000	0,988159	4,283600
0,010000	0,971985	2,796783
0,011000	0,989685	4,681549
0,012000	0,970612	4,022827
0,013000	0,988617	4,999847
0,014000	0,973663	4,999847
0,015000	0,984039	4,999847
0,016000	0,977325	4,999847
0,017000	0,980682	4,999847
0,018000	0,980225	4,999237
0,019000	0,977936	3,951263
0,020000	0,983276	2,013702
0,021000	0,974731	4,448547
0,022000	0,985565	4,780273
0,023000	0,972595	4,999847
0,024000	0,987854	4,999847
0,025000	0,970001	4,999847
0,026000	0,990753	4,999847
0,027000	0,970612	4,999847
0,028000	0,986176	4,999847
0,029000	0,974121	4,604034
0,030000	0,982361	2,622833
0,031000	0,977020	4,999847
0,032000	0,978851	3,316498
0,033000	0,980835	4,999847
0,034000	0,975494	4,999847
0,035000	0,982666	4,999847
0,036000	0,972443	4,999847
0,037000	0,985413	4,999847
0,038000	0,969849	4,778442
0,039000	0,987854	3,790283
0,040000	0,967407	2,841034
0,041000	0,987854	4,999847
0,042000	0,970612	4,597473
0,043000	0,983734	4,999847
0,044000	0,973358	4,999847
0,045000	0,980072	4,999847
0,046000	0,976715	4,999847
0,047000	0,976410	4,999847
0,048000	0,979614	4,995270
0,049000	0,973053	3,376617
0,050000	0,981903	4,999847
0,051000	0,970001	4,081421
0,052000	0,984192	3,391266
0,053000	0,967865	4,999847
0,054000	0,987091	4,999847
0,055000	0,966644	4,999847
0,056000	0,985260	4,999847
0,057000	0,969543	4,999847
0,058000	0,981598	4,999847
0,059000	0,973053	2,712555
0,060000	0,977631	4,999847
0,061000	0,976105	3,655548
0,062000	0,973816	4,999847
0,063000	0,979309	4,999847
0,064000	0,970612	4,999847
0,065000	0,982056	4,999847
0,066000	0,968170	4,999847
0,067000	0,984039	4,999847
0,068000	0,966034	4,999847
0,069000	0,985870	4,134979
0,070000	0,966034	3,923950
0,071000	0,982819	3,500519
0,072000	0,970001	3,764648
0,073000	0,979004	4,999847
0,074000	0,973053	4,999847
0,075000	0,975494	4,999847
0,076000	0,976715	4,999847
0,077000	0,971985	4,999847
0,078000	0,979004	4,999847
0,079000	0,968323	3,524475
0,080000	0,980835	3,847046
0,081000	0,966339	3,197327
0,082000	0,983582	4,999847
0,083000	0,964355	4,999847
0,084000	0,984344	4,999847
0,085000	0,966492	4,999847
0,086000	0,980530	4,999847
0,087000	0,970154	4,999847
0,088000	0,976105	4,999847
0,089000	0,972900	3,515472
0,090000	0,973053	3,497620
0,091000	0,975647	4,999847
0,092000	0,969543	4,615479
0,093000	0,978241	4,999847
0,094000	0,966797	4,999847
0,095000	0,980072	4,999847
0,096000	0,964203	4,999847
0,097000	0,982361	4,999847
0,098000	0,962372	4,684448
0,099000	0,980988	3,858032
0,100000	0,966034	4,999847
0,101000	0,977478	3,168182
0,102000	0,969086	4,999847
0,103000	0,973358	4,999847
0,104000	0,972290	4,999847
0,105000	0,970306	4,999847
0,106000	0,974579	4,999847
0,107000	0,967560	4,999847
0,108000	0,977478	4,756927
0,109000	0,965271	3,656921
0,110000	0,979156	2,868958
0,111000	0,962219	4,893341
0,112000	0,980530	4,112854
0,113000	0,961761	4,999847
0,114000	0,977478	4,999847
0,115000	0,965424	4,999847
0,116000	0,973816	4,999847
0,117000	0,968475	4,999847
0,118000	0,970306	4,512329
0,119000	0,970764	3,029785
0,120000	0,967560	2,468262
0,121000	0,973053	4,999847
0,122000	0,964508	4,999847
0,123000	0,974579	4,999847
0,124000	0,961609	4,999847
0,125000	0,976562	4,999847
0,126000	0,959778	4,999847
0,127000	0,977173	4,999847
0,128000	0,961761	4,999847
0,129000	0,973969	4,134979
0,130000	0,963898	2,802429
0,131000	0,970001	4,175415
0,132000	0,966339	4,038544
0,133000	0,966949	4,999847
0,134000	0,968475	4,999847
0,135000	0,963745	4,999847
0,136000	0,970001	4,999847
0,137000	0,961456	4,999847
0,138000	0,971375	4,999847
0,139000	0,958862	2,768860
0,140000	0,973358	3,739319
0,141000	0,957489	2,420807
0,142000	0,972137	4,999847
0,143000	0,959625	4,999847
0,144000	0,968475	4,999847
0,145000	0,961609	4,999847
0,146000	0,964813	4,999847
0,147000	0,963745	4,999847
0,148000	0,962830	4,999847
0,149000	0,965424	3,931427
0,150000	0,959625	3,816833
0,151000	0,966492	4,021759
0,152000	0,957642	4,187012
0,153000	0,967255	4,999847
0,154000	0,955353	4,999847
0,155000	0,968018	4,999847
0,156000	0,954895	4,999847
0,157000	0,966492	4,999847
0,158000	0,957336	4,999847
0,159000	0,963440	3,539124
0,160000	0,959015	3,350220
0,161000	0,960388	4,609070
0,162000	0,960388	4,419861
0,163000	0,958099	4,999847
0,164000	0,961609	4,999847
0,165000	0,956726	4,999847
0,166000	0,962830	4,999847
0,167000	0,954132	4,999847
0,168000	0,963287	4,999847
0,169000	0,952606	4,261627
0,170000	0,963593	3,602448
0,171000	0,953217	3,875885
0,172000	0,960541	4,904175
0,173000	0,954590	4,999847
0,174000	0,958557	4,999847
0,175000	0,955963	4,999847
0,176000	0,956573	4,999847
0,177000	0,957031	4,999847
0,178000	0,954895	4,521484
0,179000	0,957642	3,648224
0,180000	0,951996	3,930054
0,181000	0,957947	3,784332
0,182000	0,950470	4,999847
0,183000	0,958557	4,999847
0,184000	0,950012	4,999847
0,185000	0,957947	4,999847
0,186000	0,951080	4,999847
0,187000	0,955658	4,999847
0,188000	0,951843	4,999847
0,189000	0,953674	4,686432
0,190000	0,952759	4,687653
0,191000	0,952301	3,621674
0,192000	0,954132	4,611664
0,193000	0,950623	4,999847
0,194000	0,953217	4,999847
0,195000	0,949097	4,999847
0,196000	0,953979	4,999847
0,197000	0,948334	4,999847
0,198000	0,954590	4,999847
0,199000	0,947113	3,895874
0,200000	0,953522	3,521576
0,201000	0,948486	3,901978
0,202000	0,951691	4,999847
0,203000	0,949707	4,999847
0,204000	0,950470	4,999847
0,205000	0,950317	4,999847
0,206000	0,948944	4,999847
0,207000	0,950470	4,999847
0,208000	0,948029	4,999847
0,209000	0,950775	3,308105
0,210000	0,946960	3,838348
0,211000	0,951080	2,881775
0,212000	0,946045	3,165741
0,213000	0,951233	4,999847
0,214000	0,946350	4,999847
0,215000	0,950012	4,999847
0,216000	0,946808	4,999847
0,217000	0,948639	4,999847
0,218000	0,947571	4,999847
0,219000	0,947571	3,441010
0,220000	0,947876	3,698273
0,221000	0,946960	2,953339
0,222000	0,948944	4,839172
0,223000	0,946045	4,999847
0,224000	0,948792	4,999847
0,225000	0,945435	4,999847
0,226000	0,948944	4,999847
0,227000	0,944061	4,999847
0,228000	0,948639	4,999847
0,229000	0,944672	4,377899
0,230000	0,947418	3,709259
0,231000	0,944366	4,703522
0,232000	0,945740	4,773560
0,233000	0,944977	4,999847
0,234000	0,945282	4,999847
0,235000	0,945740	4,999847
0,236000	0,944672	4,999847
0,237000	0,946198	4,999847
0,238000	0,943756	4,999847
0,239000	0,946045	4,203339
0,240000	0,943146	4,032745
0,241000	0,946350	4,154663
0,242000	0,943146	4,999847
0,243000	0,946655	4,999847
0,244000	0,943451	4,999847
0,245000	0,945435	4,999847
0,246000	0,943298	4,999847
0,247000	0,944366	4,999847
0,248000	0,943909	4,999847
0,249000	0,944061	3,839569
0,250000	0,944824	4,403839
0,251000	0,943146	4,197083
0,252000	0,944519	4,301910
0,253000	0,943146	4,999847
0,254000	0,944824	4,999847
0,255000	0,942383	4,999847
0,256000	0,944977	4,999847
0,257000	0,942230	4,999847
0,258000	0,944672	4,999847
0,259000	0,942688	4,168396
0,260000	0,944061	2,606964
0,261000	0,942993	4,565735
0,262000	0,943146	4,999847
0,263000	0,942841	4,999847
0,264000	0,942841	4,999847
0,265000	0,942993	4,999847
0,266000	0,942230	4,999847
0,267000	0,942535	4,999847
0,268000	0,941467	4,962006
0,269000	0,943146	3,904877
0,270000	0,941620	4,537964
0,271000	0,944061	2,348480
0,272000	0,941467	3,470001
0,273000	0,942993	4,999847
0,274000	0,941772	4,999847
0,275000	0,943146	4,999847
0,276000	0,941925	4,999847
0,277000	0,942688	4,999847
0,278000	0,941925	4,999847
0,279000	0,941315	3,876190
0,280000	0,942230	4,117126
0,281000	0,941315	4,281006
0,282000	0,942535	4,999847
0,283000	0,940857	4,999847
0,284000	0,942993	4,999847
0,285000	0,941010	4,999847
0,286000	0,943146	4,999847
0,287000	0,941010	4,999847
0,288000	0,942841	4,999847
0,289000	0,941467	4,408417
0,290000	0,942535	3,711853
0,291000	0,941772	4,193268
0,292000	0,941467	4,174500
0,293000	0,941467	4,999847
0,294000	0,941772	4,999847
0,295000	0,942230	4,999847
0,296000	0,941162	4,999847
0,297000	0,941925	4,999847
0,298000	0,940704	4,956665
0,299000	0,941620	3,934631
0,300000	0,940399	3,803101
0,301000	0,942383	4,348450
0,302000	0,940704	4,999847
0,303000	0,941925	4,999847
0,304000	0,941010	4,999847
0,305000	0,941620	4,999847
0,306000	0,940857	4,999847
0,307000	0,940704	4,999847
0,308000	0,940857	4,999847
0,309000	0,941315	4,664764
0,310000	0,941467	2,673645
0,311000	0,940857	4,902191
0,312000	0,941620	4,924927
0,313000	0,940399	4,660339
0,314000	0,941772	4,999847
0,315000	0,940094	4,999847
0,316000	0,941620	4,999847
0,317000	0,940552	4,999847
0,318000	0,941315	4,999847
0,319000	0,940399	3,199615
0,320000	0,940857	2,777710
0,321000	0,940399	4,999847
0,322000	0,939941	4,999847
0,323000	0,940399	4,999847
0,324000	0,940857	4,999847
0,325000	0,941162	4,999847
0,326000	0,940552	4,999847
0,327000	0,941162	4,999847
0,328000	0,940399	4,999847
0,329000	0,941925	4,067230
0,330000	0,940399	3,083496
0,331000	0,941010	4,182434
0,332000	0,940094	4,369202
0,333000	0,940704	4,999847
0,334000	0,940399	4,999847
0,335000	0,940552	4,999847
0,336000	0,940399	4,999847
0,337000	0,940399	4,948730
0,338000	0,940399	4,999847
0,339000	0,939941	3,857269
0,340000	0,940704	2,653809
0,341000	0,940094	4,965820
0,342000	0,941010	4,933777
0,343000	0,939941	4,999847
0,344000	0,940857	4,999847
0,345000	0,940094	4,999847
0,346000	0,940857	4,999847
0,347000	0,940399	4,999847
0,348000	0,941315	4,999847
0,349000	0,941467	3,686371
0,350000	0,941162	3,496399
0,351000	0,941315	3,681793
0,352000	0,941772	3,498535
0,353000	0,941467	4,999847
0,354000	0,941162	4,999847
0,355000	0,941162	4,999847
0,356000	0,941162	4,999847
0,357000	0,941315	4,999847
0,358000	0,941772	4,999847
0,359000	0,941772	3,514404
0,360000	0,941315	3,669891
0,361000	0,941620	4,999847
0,362000	0,941162	4,999847
0,363000	0,941620	4,999847
0,364000	0,941467	4,999847
0,365000	0,940552	4,999847
0,366000	0,941772	4,999847
0,367000	0,941620	4,999847
0,368000	0,941010	4,999847
0,369000	0,941772	3,810425
0,370000	0,941620	3,259583
0,371000	0,941467	4,366150
0,372000	0,944519	4,575043
0,373000	0,967255	4,999847
0,374000	0,989838	4,999847
0,375000	0,987854	4,999847
0,376000	0,997009	4,999847
0,377000	0,992737	4,999847
0,378000	0,996704	4,999847
0,379000	0,993805	3,864288
0,380000	0,995178	3,610992
0,381000	0,995789	3,359070
0,382000	0,992584	4,999847
0,383000	0,995941	4,999847
0,384000	0,990448	4,999847
0,385000	0,997314	4,999847
0,386000	0,988312	4,999847
0,387000	0,997772	4,999847
0,388000	0,986176	4,826050
0,389000	0,997467	3,486633
0,390000	0,987244	4,150391
0,391000	0,995026	3,729248
0,392000	0,988770	3,565063
0,393000	0,992126	4,999847
0,394000	0,990143	4,999847
0,395000	0,989227	4,999847
0,396000	0,991058	4,999847
0,397000	0,986633	4,999847
0,398000	0,992432	4,999847
0,399000	0,984955	3,594818
0,400000	0,994415	2,792053
0,401000	0,982819	4,830933
0,402000	0,995178	4,238434
0,403000	0,981140	4,999847
0,404000	0,994415	4,999847
0,405000	0,982666	4,999847
0,406000	0,990906	4,999847
0,407000	0,985107	4,999847
0,408000	0,987854	4,842072
0,409000	0,987091	3,229218
0,410000	0,985565	3,015594
0,411000	0,989532	4,999847
0,412000	0,982819	4,371185
0,413000	0,990753	4,999847
0,414000	0,979919	4,999847
0,415000	0,992279	4,999847
0,416000	0,978088	4,999847
0,417000	0,993500	4,999847
0,418000	0,977325	4,794922
0,419000	0,990448	3,071136
0,420000	0,980530	3,074493
0,421000	0,986938	3,943329
0,422000	0,982666	4,999847
0,423000	0,984192	4,999847
0,424000	0,985107	4,999847
0,425000	0,981293	4,999847
0,426000	0,986938	4,999847
0,427000	0,978851	4,999847
0,428000	0,989380	4,999847
0,429000	0,975800	4,312439
0,430000	0,990448	4,599915
0,431000	0,973358	3,522186
0,432000	0,991516	3,796997
0,433000	0,975189	4,999847
0,434000	0,987701	4,999847
0,435000	0,978394	4,999847
0,436000	0,985260	4,999847
0,437000	0,981598	4,999847
0,438000	0,981598	4,914856
0,439000	0,983734	2,999268
0,440000	0,977936	4,279938
0,441000	0,986176	3,758850
0,442000	0,975494	4,743500
0,443000	0,988464	4,999847
0,444000	0,972595	4,999847
0,445000	0,989685	4,999847
0,446000	0,970917	4,999847
0,447000	0,989075	4,999847
0,448000	0,973816	4,999847
0,449000	0,984955	3,401794
0,450000	0,977020	3,892822
0,451000	0,981598	3,745117
0,452000	0,980530	4,201660
0,453000	0,978394	4,967957
0,454000	0,982666	4,999847
0,455000	0,975494	4,999847
0,456000	0,985413	4,999847
0,457000	0,972443	4,999847
0,458000	0,987396	4,999847
0,459000	0,970154	3,950348
0,460000	0,989227	4,396362
0,461000	0,970306	2,995453
0,462000	0,986786	4,895935
0,463000	0,973206	4,999847
0,464000	0,982971	4,999847
0,465000	0,976715	4,999847
0,466000	0,979309	4,999847
0,467000	0,980072	4,999847
0,468000	0,975952	4,999847
0,469000	0,982666	4,435577
0,470000	0,973053	3,891754
0,471000	0,984802	3,358307
0,472000	0,970001	4,504700
0,473000	0,985870	4,999847
0,474000	0,967102	4,999847
0,475000	0,987854	4,999847
0,476000	0,969696	4,999847
0,477000	0,984497	4,999847
0,478000	0,973816	4,999847
0,479000	0,980988	3,832245
0,480000	0,976410	2,716370
0,481000	0,977020	4,303741
0,482000	0,979919	4,333649
0,483000	0,973663	4,999847
0,484000	0,981903	4,999847
0,485000	0,970459	4,999847
0,486000	0,984650	4,999847
0,487000	0,967560	4,999847
0,488000	0,982208	4,780579
0,489000	0,963898	4,030304
0,490000	0,984650	4,025574
0,491000	0,968933	3,100281
0,492000	0,981293	3,745880
0,493000	0,973053	4,999847
0,494000	0,977783	4,999847
0,495000	0,976868	4,999847
0,496000	0,975037	4,999847
0,497000	0,979462	4,999847
0,498000	0,971832	4,332428
0,499000	0,981750	3,790588
0,500000	0,969391	3,010712
0,501000	0,984344	4,656677
0,502000	0,966034	4,999847
0,503000	0,986328	4,999847
0,504000	0,965881	4,999847
0,505000	0,983582	4,999847
0,506000	0,969543	4,999847
0,507000	0,980072	4,999847
0,508000	0,973206	4,643097
0,509000	0,976105	4,108582
0,510000	0,975952	2,725677
0,511000	0,972595	4,670410
0,512000	0,978851	4,999847
0,513000	0,969238	4,999847
0,514000	0,981293	4,999847
0,515000	0,966339	4,999847
0,516000	0,983734	4,999847
0,517000	0,964813	4,999847
0,518000	0,985107	4,999847
0,519000	0,965729	3,977966
0,520000	0,980835	4,559174
0,521000	0,969696	4,223480
0,522000	0,977631	4,949799
0,523000	0,972748	4,999847
0,524000	0,973663	4,999847
0,525000	0,975647	4,999847
0,526000	0,970306	4,999847
0,527000	0,978241	4,999847
0,528000	0,967712	4,709625
0,529000	0,980530	4,304352
0,530000	0,965424	4,341888
0,531000	0,982513	3,409271
0,532000	0,962677	4,357300
0,533000	0,982361	4,988556
0,534000	0,965576	4,999847
0,535000	0,978088	4,999847
0,536000	0,969238	4,999847
0,537000	0,974121	4,999847
0,538000	0,971985	4,999847
0,539000	0,971069	3,829803
0,540000	0,975189	2,974701
0,541000	0,968018	4,924774
0,542000	0,977020	4,740906
0,543000	0,965576	4,999847
0,544000	0,979767	4,999847
0,545000	0,962372	4,999847
0,546000	0,980835	4,999847
0,547000	0,962067	4,999847
0,548000	0,978699	4,999847
0,549000	0,965576	4,019470
0,550000	0,975189	3,582458
0,551000	0,968933	4,721985
0,552000	0,971222	4,999847
0,553000	0,970917	4,999847
0,554000	0,968475	4,999847
0,555000	0,973816	4,999847
0,556000	0,965424	4,999847
0,557000	0,975037	4,999847
0,558000	0,962982	4,806824
0,559000	0,977020	4,147491
0,560000	0,960846	2,407532
0,561000	0,978394	4,567413
0,562000	0,960236	4,999847
0,563000	0,974426	4,999847
0,564000	0,964355	4,999847
0,565000	0,971069	4,999847
0,566000	0,967560	4,999847
0,567000	0,967712	4,999847
0,568000	0,968933	4,706116
0,569000	0,964203	4,781647
0,570000	0,971222	2,603607
0,571000	0,962372	4,051819
0,572000	0,972290	4,289093
0,573000	0,959473	4,999847
0,574000	0,973358	4,999847
0,575000	0,957947	4,999847
0,576000	0,973206	4,999847
0,577000	0,960083	4,999847
0,578000	0,969849	4,999847
0,579000	0,962219	3,895111
0,580000	0,966492	2,558899
0,581000	0,963440	4,379120
0,582000	0,962372	4,773712
0,583000	0,965576	4,999847
0,584000	0,960999	4,999847
0,585000	0,967255	4,999847
0,586000	0,958710	4,999847
0,587000	0,968781	4,999847
0,588000	0,956116	4,999847
0,589000	0,969696	4,198151
0,590000	0,955200	2,630920
0,591000	0,968018	4,999847
0,592000	0,957794	4,366150
0,593000	0,964661	4,999847
0,594000	0,959320	4,999847
0,595000	0,961761	4,999847
0,596000	0,960999	4,999847
0,597000	0,959473	4,999847
0,598000	0,962219	4,430389
0,599000	0,956726	3,507843
0,600000	0,963593	3,329315
0,601000	0,955353	4,999847
0,602000	0,963898	4,999847
0,603000	0,952911	4,999847
0,604000	0,964813	4,999847
0,605000	0,953979	4,999847
0,606000	0,962219	4,999847
0,607000	0,955048	4,999847
0,608000	0,959473	4,999847
0,609000	0,956421	4,087982
0,610000	0,957336	2,990875
0,611000	0,957184	4,761658
0,612000	0,955353	4,800110
0,613000	0,958252	4,999847
0,614000	0,952911	4,999847
0,615000	0,958710	4,999847
0,616000	0,950928	4,999847
0,617000	0,959167	4,999847
0,618000	0,950470	4,999847
0,619000	0,959473	3,806763
0,620000	0,950775	3,053589
0,621000	0,957336	4,008484
0,622000	0,952606	3,895416
0,623000	0,955353	4,999847
0,624000	0,953369	4,999847
0,625000	0,953217	4,999847
0,626000	0,953827	4,999847
0,627000	0,951080	4,999847
0,628000	0,955048	4,799957
0,629000	0,949097	4,542542
0,630000	0,955048	3,078461
0,631000	0,948792	4,999847
0,632000	0,955658	4,203033
0,633000	0,948334	4,928284
0,634000	0,954742	4,999847
0,635000	0,949554	4,999847
0,636000	0,953064	4,999847
0,637000	0,949707	4,999847
0,638000	0,951538	4,999847
0,639000	0,950623	3,577728
0,640000	0,949860	2,964783
0,641000	0,950012	4,999847
0,642000	0,947571	4,033966
0,643000	0,951080	4,999847
0,644000	0,946960	4,999847
0,645000	0,951385	4,999847
0,646000	0,946350	4,999847
0,647000	0,951843	4,999847
0,648000	0,946503	4,999847
0,649000	0,951080	4,326019
0,650000	0,947266	2,532349
0,651000	0,948944	4,893036
0,652000	0,947876	3,711548
0,653000	0,948181	4,941406
0,654000	0,948334	4,999847
0,655000	0,947418	4,999847
0,656000	0,948944	4,999847
0,657000	0,946350	4,999847
0,658000	0,948944	4,916382
0,659000	0,945282	3,010712
0,660000	0,949402	3,305359
0,661000	0,944519	3,711853
0,662000	0,949402	4,457397
0,663000	0,945435	4,999847
0,664000	0,948334	4,999847
0,665000	0,945435	4,999847
0,666000	0,947266	4,999847
0,667000	0,946655	4,999847
0,668000	0,946198	4,999847
0,669000	0,946198	3,940887
0,670000	0,945129	2,918091
0,671000	0,946350	4,177704
0,672000	0,944519	4,470520
0,673000	0,947113	4,999847
0,674000	0,943298	4,999847
0,675000	0,946960	4,999847
0,676000	0,942993	4,999847
0,677000	0,946503	4,999847
0,678000	0,943451	4,999847
0,679000	0,946198	3,607025
0,680000	0,944214	3,025513
0,681000	0,945587	4,016876
0,682000	0,944672	4,999847
0,683000	0,944519	4,999847
0,684000	0,944672	4,999847
0,685000	0,943298	4,999847
0,686000	0,944672	4,999847
0,687000	0,942841	4,999847
0,688000	0,944672	4,999847
0,689000	0,942535	3,647766
0,690000	0,944519	4,263611
0,691000	0,942230	3,709106
0,692000	0,944977	4,556580
0,693000	0,942993	4,999847
