LabVIEW Measurement	
Writer_Version	2
Reader_Version	2
Separator	Tab
Decimal_Separator	,
Multi_Headings	Yes
X_Columns	One
Time_Pref	Absolute
Operator	d.nicolai
Date	2023/11/09
Time	16:46:38,4425126999997713665
***End_of_Header***	
	
Channels	2		
Samples	1000	1000	
Date	2023/11/09	2023/11/09	
Time	16:46:44,2465123999998728543	16:46:44,2465123999998728543	
Y_Unit_Label	Volts	Volts	
X_Dimension	Time	Time	
X0	0,0000000000000000E+0	0,0000000000000000E+0	
Delta_X	0,001000	0,001000	
***End_of_Header***			
X_Value	powebox	triggerbox	Comment
0,000000	0,934601	0,958557
0,001000	0,883942	4,648895
0,002000	0,965424	4,999847
0,003000	0,872498	4,999847
0,004000	0,989990	4,999847
0,005000	0,860901	4,999847
0,006000	1,011505	4,999847
0,007000	0,857239	4,999847
0,008000	0,994873	4,999847
0,009000	0,900116	3,965912
0,010000	0,963135	3,457642
0,011000	0,918579	3,643494
0,012000	0,940399	4,905853
0,013000	0,946655	4,999847
0,014000	0,920715	4,999847
0,015000	0,972137	4,999847
0,016000	0,904388	4,999847
0,017000	0,995026	4,933014
0,018000	0,889435	4,757080
0,019000	1,015930	3,800812
0,020000	0,877075	2,284851
0,021000	1,031189	4,999847
0,022000	0,887604	4,999847
0,023000	1,003723	4,999847
0,024000	0,922089	4,999847
0,025000	0,979919	4,999847
0,026000	0,866089	4,999847
0,027000	0,908051	4,999847
0,028000	0,958710	4,999847
0,029000	0,931854	3,845367
0,030000	1,001434	2,139893
0,031000	0,923920	4,999847
0,032000	1,027222	4,672394
0,033000	0,911713	4,999847
0,034000	1,049347	4,999847
0,035000	0,900726	4,999847
0,036000	1,050720	4,999847
0,037000	0,926514	4,999847
0,038000	1,025543	4,587250
0,039000	0,959320	3,372498
0,040000	1,002808	3,205719
0,041000	0,988617	4,714508
0,042000	0,983276	4,804535
0,043000	1,015472	4,999847
0,044000	0,965729	4,999847
0,045000	1,040039	4,999847
0,046000	0,950165	4,999847
0,047000	1,063690	4,999847
0,048000	0,937347	4,999847
0,049000	1,085358	4,559174
0,050000	0,930176	2,537689
0,051000	1,071625	4,518585
0,052000	0,965118	4,999847
0,053000	1,047821	4,999847
0,054000	0,996399	4,999847
0,055000	1,025848	4,999847
0,056000	1,024628	4,999847
0,057000	1,005554	4,999847
0,058000	1,051178	4,999847
0,059000	0,988312	3,687134
0,060000	1,076355	4,191589
0,061000	0,961456	4,816284
0,062000	1,092987	4,999847
0,063000	0,957947	4,999847
0,064000	1,112976	4,999847
0,065000	0,966187	4,999847
0,066000	1,085968	4,999847
0,067000	0,999756	4,999847
0,068000	1,062317	4,999847
0,069000	1,030426	4,238892
0,070000	1,040955	3,974152
0,071000	1,057587	3,921967
0,072000	1,020966	3,849335
0,073000	1,084290	4,999847
0,074000	1,003876	4,999847
0,075000	1,107330	4,999847
0,076000	0,988770	4,999847
0,077000	1,123047	4,999847
0,078000	0,975952	4,999847
0,079000	1,116486	2,902832
0,080000	0,997162	2,841644
0,081000	1,089325	4,847717
0,082000	1,029663	4,999847
0,083000	1,067505	4,999847
0,084000	1,060181	4,999847
0,085000	1,047974	4,999847
0,086000	1,088409	4,999847
0,087000	1,029968	4,999847
0,088000	1,112671	4,999847
0,089000	1,005096	4,096985
0,090000	1,125946	3,170013
0,091000	1,000366	4,627228
0,092000	1,134949	4,487610
0,093000	0,990143	4,999847
0,094000	1,112823	4,999847
0,095000	1,024780	4,999847
0,096000	1,088715	4,999847
0,097000	1,058044	4,999847
0,098000	1,069183	4,999847
0,099000	1,088867	3,051910
0,100000	1,051788	2,953033
0,101000	1,115112	4,767456
0,102000	1,036835	4,999847
0,103000	1,131287	4,999847
0,104000	1,022644	4,999847
0,105000	1,137543	4,999847
0,106000	1,010590	4,999847
0,107000	1,138916	4,999847
0,108000	1,015015	4,999847
0,109000	1,107941	3,290253
0,110000	1,051483	3,446655
0,111000	1,087189	3,791504
0,112000	1,085205	4,547577
0,113000	1,070099	4,999847
0,114000	1,114044	4,999847
0,115000	1,055756	4,999847
0,116000	1,132507	4,999847
0,117000	1,042480	4,999847
0,118000	1,139374	4,963989
0,119000	1,030121	3,495789
0,120000	1,141510	4,079590
0,121000	1,019745	4,461517
0,122000	0,961761	4,913177
0,123000	0,937347	4,999847
0,124000	0,926666	4,999847
0,125000	0,922241	4,999847
0,126000	0,920258	4,999847
0,127000	0,919037	4,999847
0,128000	0,908661	4,999847
0,129000	0,850983	3,457794
0,130000	0,890198	4,394836
0,131000	0,906219	3,993530
0,132000	0,912781	3,872375
0,133000	0,915833	4,999847
0,134000	0,917053	4,999847
0,135000	0,917511	4,999847
0,136000	0,917664	4,999847
0,137000	0,917511	4,999847
0,138000	0,917816	4,999847
0,139000	0,917969	2,754517
0,140000	0,917969	2,849274
0,141000	0,917511	4,056854
0,142000	0,917664	4,999847
0,143000	0,771332	4,999847
0,144000	0,644226	4,999847
0,145000	0,603333	4,999847
0,146000	0,572357	4,999847
0,147000	0,578003	4,999847
0,148000	0,558777	4,999847
0,149000	0,577240	4,215393
0,150000	0,554657	3,665771
0,151000	0,578613	3,896790
0,152000	0,558167	4,389191
0,153000	0,575714	4,999847
0,154000	0,564117	4,999847
0,155000	0,572510	4,999847
0,156000	0,570374	4,999847
0,157000	0,569458	4,999847
0,158000	0,575867	4,739380
0,159000	0,546722	2,760010
0,160000	0,573578	2,567596
0,161000	0,561066	4,107208
0,162000	0,586395	4,949188
0,163000	0,561523	4,999847
0,164000	0,592957	4,999847
0,165000	0,560455	4,999847
0,166000	0,591888	4,999847
0,167000	0,567627	4,999847
0,168000	0,586700	4,941406
0,169000	0,575714	4,424286
0,170000	0,582123	4,999847
0,171000	0,582428	2,946320
0,172000	0,578308	3,812714
0,173000	0,588837	4,999847
0,174000	0,573425	4,999847
0,175000	0,596466	4,999847
0,176000	0,570984	4,999847
0,177000	0,603485	4,999847
0,178000	0,567932	4,324493
0,179000	0,609894	3,477173
0,180000	0,569611	4,183502
0,181000	0,604248	4,439240
0,182000	0,579376	4,820557
0,183000	0,598602	4,999847
0,184000	0,588684	4,999847
0,185000	0,592651	4,999847
0,186000	0,597687	4,999847
0,187000	0,587921	4,999847
0,188000	0,606842	4,999847
0,189000	0,583344	3,724976
0,190000	0,614319	3,536224
0,191000	0,578766	3,413239
0,192000	0,622253	4,463196
0,193000	0,574493	4,999847
0,194000	0,626221	4,999847
0,195000	0,581512	4,999847
0,196000	0,617676	4,999847
0,197000	0,593109	4,999847
0,198000	0,610352	4,183960
0,199000	0,604248	3,174896
0,200000	0,603180	2,439117
0,201000	0,614471	4,329529
0,202000	0,597076	4,999847
0,203000	0,624237	4,999847
0,204000	0,590973	4,999847
0,205000	0,632935	4,999847
0,206000	0,585480	4,999847
0,207000	0,641785	4,999847
0,208000	0,581512	4,690399
0,209000	0,640259	4,078979
0,210000	0,594788	3,717651
0,211000	0,630188	3,545074
0,212000	0,608063	4,211731
0,213000	0,621490	4,999847
0,214000	0,620117	4,999847
0,215000	0,612946	4,999847
0,216000	0,632019	4,999847
0,217000	0,605621	4,999847
0,218000	0,642700	4,445953
0,219000	0,599365	3,999634
0,220000	0,652618	3,282776
0,221000	0,592957	4,563751
0,222000	0,662384	4,999847
0,223000	0,593872	4,999847
0,224000	0,653076	4,999847
0,225000	0,609589	4,999847
0,226000	0,642242	4,999847
0,227000	0,624542	4,999847
0,228000	0,632019	4,958649
0,229000	0,637665	4,134827
0,230000	0,622711	3,399811
0,231000	0,550537	3,843994
0,232000	0,572205	4,397888
0,233000	0,644684	4,999847
0,234000	0,579987	4,999847
0,235000	0,626678	4,999847
0,236000	0,560150	4,999847
0,237000	0,662994	4,999847
0,238000	0,601349	4,682922
0,239000	0,663147	3,098145
0,240000	0,624695	3,502655
0,241000	0,653229	4,917908
0,242000	0,642090	4,999847
0,243000	0,642548	4,999847
0,244000	0,657196	4,999847
0,245000	0,631866	4,999847
0,246000	0,670929	4,999847
0,247000	0,622711	4,999847
0,248000	0,683594	4,864807
0,249000	0,614166	3,954163
0,250000	0,695496	3,008575
0,251000	0,606689	3,083954
0,252000	0,693512	4,999847
0,253000	0,624847	4,999847
0,254000	0,678406	4,999847
0,255000	0,643921	4,999847
0,256000	0,664825	4,999847
0,257000	0,661469	4,999847
0,258000	0,652618	4,472961
0,259000	0,677338	3,501587
0,260000	0,641174	2,443542
0,261000	0,692139	4,294586
0,262000	0,631561	4,999847
0,263000	0,705872	4,999847
0,264000	0,622559	4,999847
0,265000	0,718384	4,999847
0,266000	0,621338	4,999847
0,267000	0,706635	4,999847
0,268000	0,643311	4,999847
0,269000	0,690460	4,999847
0,270000	0,663147	4,301758
0,271000	0,675659	2,958984
0,272000	0,681915	3,789978
0,273000	0,662231	4,999847
0,274000	0,698700	4,999847
0,275000	0,650482	4,999847
0,276000	0,714264	4,999847
0,277000	0,639648	4,999847
0,278000	0,728912	4,280396
0,279000	0,630341	3,761444
0,280000	0,738220	2,174988
0,281000	0,639801	4,829102
0,282000	0,718842	4,690094
0,283000	0,662994	4,999847
0,284000	0,702057	4,999847
0,285000	0,683746	4,999847
0,286000	0,686646	4,999847
0,287000	0,703583	4,999847
0,288000	0,672150	4,999847
0,289000	0,721130	4,772186
0,290000	0,659637	3,206024
0,291000	0,737762	4,308167
0,292000	0,648193	4,121857
0,293000	0,753021	4,999847
0,294000	0,638733	4,999847
0,295000	0,751648	4,999847
0,296000	0,659943	4,999847
0,297000	0,730896	4,999847
0,298000	0,684052	4,677734
0,299000	0,712891	3,815155
0,300000	0,705872	3,864746
0,301000	0,696564	3,262787
0,302000	0,726318	4,999847
0,303000	0,682220	4,999847
0,304000	0,744781	4,999847
0,305000	0,669556	4,999847
0,306000	0,761719	4,999847
0,307000	0,657654	4,999847
0,308000	0,777435	4,999847
0,309000	0,654449	4,769135
0,310000	0,763855	3,522034
0,311000	0,681915	3,008728
0,312000	0,742950	4,811401
0,313000	0,706940	4,999847
0,314000	0,716400	4,999847
0,315000	0,726166	4,999847
0,316000	0,687256	4,999847
0,317000	0,741425	4,999847
0,318000	0,689240	4,999847
0,319000	0,766907	4,230042
0,320000	0,678711	2,775574
0,321000	0,785980	4,765472
0,322000	0,667114	4,474945
0,323000	0,799103	4,999847
0,324000	0,676575	4,999847
0,325000	0,775452	4,999847
0,326000	0,705109	4,999847
0,327000	0,754395	4,999847
0,328000	0,730133	4,999847
0,329000	0,735474	4,854279
0,330000	0,753784	2,818146
0,331000	0,718689	4,673615
0,332000	0,774841	4,334717
0,333000	0,662842	4,999847
0,334000	0,742493	4,999847
0,335000	0,668793	4,999847
0,336000	0,802917	4,999847
0,337000	0,674591	4,999847
0,338000	0,810852	4,858551
0,339000	0,700684	3,352356
0,340000	0,788269	3,898621
0,341000	0,730133	4,756470
0,342000	0,767365	4,999847
0,343000	0,756531	4,999847
0,344000	0,748444	4,999847
0,345000	0,779877	4,999847
0,346000	0,731659	4,999847
0,347000	0,802002	4,999847
0,348000	0,716400	4,999847
0,349000	0,821686	4,659576
0,350000	0,703888	3,831024
0,351000	0,840149	3,330536
0,352000	0,697937	3,491058
0,353000	0,826721	4,999847
0,354000	0,729675	4,999847
0,355000	0,802460	4,999847
0,356000	0,758514	4,999847
0,357000	0,781555	4,999847
0,358000	0,784607	4,991913
0,359000	0,762634	3,468323
0,360000	0,808411	3,167419
0,361000	0,746155	3,527527
0,362000	0,830383	4,782104
0,363000	0,732117	4,999847
0,364000	0,850525	4,999847
0,365000	0,719452	4,999847
0,366000	0,867004	4,999847
0,367000	0,727692	4,999847
0,368000	0,841217	4,999847
0,369000	0,759888	4,757843
0,370000	0,817871	3,826599
0,371000	0,788574	3,792877
0,372000	0,796967	3,797913
0,373000	0,815582	4,999847
0,374000	0,779266	4,999847
0,375000	0,839233	4,999847
0,376000	0,763550	4,999847
0,377000	0,860291	4,999847
0,378000	0,749359	4,896088
0,379000	0,880127	3,230743
0,380000	0,737305	3,851471
0,381000	0,883484	3,503265
0,382000	0,760040	4,770660
0,383000	0,857697	4,999847
0,384000	0,792084	4,999847
0,385000	0,834961	4,999847
0,386000	0,820618	4,999847
0,387000	0,814819	4,999847
0,388000	0,846863	4,999847
0,389000	0,797882	3,939972
0,390000	0,870667	2,930756
0,391000	0,782166	4,115601
0,392000	0,891724	2,913818
0,393000	0,769043	4,999847
0,394000	0,911407	4,999847
0,395000	0,760651	4,999847
0,396000	0,899963	4,999847
0,397000	0,794067	4,999847
0,398000	0,874939	4,999847
0,399000	0,825806	3,602295
0,400000	0,852814	4,231567
0,401000	0,853882	3,830261
0,402000	0,833740	4,383087
0,403000	0,879974	4,999847
0,404000	0,817566	4,999847
0,405000	0,903320	4,999847
0,406000	0,803223	4,999847
0,407000	0,908356	4,999847
0,408000	0,783844	4,999847
0,409000	0,940399	3,663635
0,410000	0,795135	2,714233
0,411000	0,917358	4,555511
0,412000	0,830231	4,580841
0,413000	0,893860	4,999847
0,414000	0,861359	4,999847
0,415000	0,872803	4,999847
0,416000	0,888672	4,999847
0,417000	0,854797	4,999847
0,418000	0,913696	4,999847
0,419000	0,838623	3,117523
0,420000	0,936432	3,746490
0,421000	0,824890	4,328308
0,422000	0,957336	4,999847
0,423000	0,812836	4,999847
0,424000	0,962830	4,999847
0,425000	0,834045	4,999847
0,426000	0,936279	4,999847
0,427000	0,866699	4,999847
0,428000	0,913391	4,965057
0,429000	0,896454	4,099274
0,430000	0,893097	4,159698
0,431000	0,923004	4,036102
0,432000	0,875549	3,466187
0,433000	0,947266	4,999847
0,434000	0,860138	4,999847
0,435000	0,969238	4,999847
0,436000	0,762482	4,999847
0,437000	0,954285	4,999847
0,438000	0,821228	4,482422
0,439000	0,973816	3,618164
0,440000	0,867767	3,049316
0,441000	0,953827	4,734802
0,442000	0,901794	4,237366
0,443000	0,932922	4,999847
0,444000	0,931244	4,999847
0,445000	0,914001	4,999847
0,446000	0,957947	4,999847
0,447000	0,897522	4,999847
0,448000	0,981598	4,999847
0,449000	0,882721	4,571991
0,450000	1,003265	3,761139
0,451000	0,870361	3,463593
0,452000	1,022034	4,124908
0,453000	0,871735	4,999847
0,454000	0,998688	4,999847
0,455000	0,907593	4,999847
0,456000	0,975342	4,999847
0,457000	0,939484	4,999847
0,458000	0,954285	4,934082
0,459000	0,967255	2,716827
0,460000	0,935974	4,768372
0,461000	0,993195	2,758942
0,462000	0,920258	4,277496
0,463000	1,016998	4,999847
0,464000	0,906830	4,999847
0,465000	1,038513	4,999847
0,466000	0,895691	4,999847
0,467000	1,048431	4,999847
0,468000	0,913239	4,811859
0,469000	1,022339	3,877411
0,470000	0,947113	3,726044
0,471000	0,999298	4,003754
0,472000	0,977783	3,990784
0,473000	0,979462	4,999847
0,474000	1,004944	4,999847
0,475000	0,961914	4,999847
0,476000	1,029968	4,999847
0,477000	0,945740	4,999847
0,478000	1,052399	4,463348
0,479000	0,932312	3,519287
0,480000	1,074982	4,484253
0,481000	0,919647	3,900909
0,482000	1,069183	4,855652
0,483000	0,952759	4,999847
0,484000	1,045227	4,999847
0,485000	0,985413	4,999847
0,486000	1,023102	4,999847
0,487000	1,014557	4,999847
0,488000	1,003571	4,921112
0,489000	1,040649	3,887787
0,490000	0,985260	4,999847
0,491000	1,065521	3,285980
0,492000	0,970001	3,617859
0,493000	1,089020	4,999847
0,494000	0,956879	4,999847
0,495000	1,109314	4,999847
0,496000	0,955963	4,999847
0,497000	1,087341	4,999847
0,498000	0,990448	4,083099
0,499000	1,063385	3,249054
0,500000	1,021118	3,958588
0,501000	1,042175	4,999847
0,502000	1,050110	4,813690
0,503000	1,022186	4,999847
0,504000	1,076813	4,999847
0,505000	1,004486	4,999847
0,506000	1,101227	4,999847
0,507000	0,990143	4,999847
0,508000	1,120300	4,654846
0,509000	0,975800	4,635468
0,510000	1,122742	2,869873
0,511000	0,989075	3,958130
0,512000	1,094360	3,886566
0,513000	1,022186	4,999847
0,514000	1,070709	4,999847
0,515000	1,052704	4,999847
0,516000	1,050568	4,999847
0,517000	1,081238	4,999847
0,518000	1,032562	4,633484
0,519000	1,107025	3,966980
0,520000	1,016235	2,928619
0,521000	1,125946	4,875641
0,522000	1,001740	4,424896
0,523000	1,135254	4,999847
0,524000	0,988617	4,999847
0,525000	1,119537	4,999847
0,526000	1,018066	4,999847
0,527000	1,093750	4,999847
0,528000	1,050415	4,999847
0,529000	1,072998	4,772949
0,530000	1,082001	2,560577
0,531000	1,055603	4,314880
0,532000	1,109924	3,450012
0,533000	1,040039	4,999847
0,534000	1,130066	4,999847
0,535000	1,025085	4,999847
0,536000	1,138916	4,999847
0,537000	1,011505	4,999847
0,538000	1,092529	4,678802
0,539000	0,975647	4,046631
0,540000	1,113892	3,622742
0,541000	1,044312	3,236542
0,542000	1,093750	4,898529
0,543000	1,079102	4,999847
0,544000	1,074982	4,999847
0,545000	1,109314	4,999847
0,546000	1,059113	4,999847
0,547000	1,131439	4,999847
0,548000	1,044769	4,840851
0,549000	1,140137	4,675140
0,550000	1,032104	3,684845
0,551000	1,143646	3,384094
0,552000	1,020966	3,679199
0,553000	1,137695	4,999847
0,554000	1,033783	4,999847
0,555000	1,109772	4,999847
0,556000	1,003265	4,999847
0,557000	0,956421	4,999847
0,558000	0,935974	4,126740
0,559000	0,927277	3,128662
0,560000	0,923309	2,145386
0,561000	0,921783	4,112854
0,562000	0,921173	4,902344
0,563000	0,920868	4,999847
0,564000	0,920563	4,999847
0,565000	0,920410	4,999847
0,566000	0,920410	4,999847
0,567000	0,920715	4,999847
0,568000	0,920258	4,999847
0,569000	0,920258	4,397736
0,570000	0,920258	2,185516
0,571000	0,919952	3,750916
0,572000	0,919800	3,259735
0,573000	0,919495	4,999847
0,574000	0,920258	4,999847
0,575000	0,920258	4,999847
0,576000	0,920105	4,999847
0,577000	0,920105	4,999847
0,578000	0,920105	4,168396
0,579000	0,920410	4,076385
0,580000	0,920258	4,097595
0,581000	0,818634	3,462524
0,582000	0,674286	4,999847
0,583000	0,608826	4,999847
0,584000	0,582733	4,999847
0,585000	0,575409	4,999847
0,586000	0,565338	4,999847
0,587000	0,574493	4,999847
0,588000	0,561523	4,628143
0,589000	0,578156	4,906616
0,590000	0,559387	3,279572
0,591000	0,582581	4,431000
0,592000	0,557709	4,036407
0,593000	0,584412	4,999847
0,594000	0,563049	4,999847
0,595000	0,580292	4,999847
0,596000	0,569611	4,999847
0,597000	0,577393	4,999847
0,598000	0,576172	4,170227
0,599000	0,574646	3,403778
0,600000	0,582275	3,047485
0,601000	0,571747	4,370117
0,602000	0,588837	4,999847
0,603000	0,569000	4,999847
0,604000	0,594635	4,999847
0,605000	0,566711	4,999847
0,606000	0,600281	4,999847
0,607000	0,565643	4,999847
0,608000	0,598755	4,999847
0,609000	0,574036	4,213715
0,610000	0,593414	3,959351
0,611000	0,582428	3,754730
0,612000	0,588379	4,044342
0,613000	0,589905	4,999847
0,614000	0,582581	4,999847
0,615000	0,596313	4,999847
0,616000	0,579071	4,999847
0,617000	0,603485	4,999847
0,618000	0,574493	4,585114
0,619000	0,609741	4,532318
0,620000	0,571136	2,207794
0,621000	0,615997	4,999847
0,622000	0,573883	4,999847
0,623000	0,609436	4,999847
0,624000	0,584412	4,999847
0,625000	0,603333	4,999847
0,626000	0,594482	4,999847
0,627000	0,597839	4,999847
0,628000	0,604095	4,999847
0,629000	0,592499	4,474640
0,630000	0,612946	2,548370
0,631000	0,587616	4,613190
0,632000	0,621490	4,017334
0,633000	0,582733	4,999847
0,634000	0,629730	4,999847
0,635000	0,578308	4,999847
0,636000	0,632172	4,999847
0,637000	0,586700	4,999847
0,638000	0,623322	4,610596
0,639000	0,599670	4,414215
0,640000	0,607758	3,642426
0,641000	0,554962	3,770905
0,642000	0,585022	4,925995
0,643000	0,611572	4,999847
0,644000	0,597534	4,999847
0,645000	0,629730	4,999847
0,646000	0,595398	4,999847
0,647000	0,640717	4,999847
0,648000	0,590057	4,878082
0,649000	0,649872	4,510498
0,650000	0,586853	3,456116
0,651000	0,646515	4,644318
0,652000	0,601196	3,139191
0,653000	0,636292	4,999847
0,654000	0,614929	4,999847
0,655000	0,627289	4,999847
0,656000	0,628357	4,999847
0,657000	0,620117	4,999847
0,658000	0,639343	4,961090
0,659000	0,611420	3,724670
0,660000	0,651703	3,322906
0,661000	0,604248	3,359070
0,662000	0,661774	4,999847
0,663000	0,598297	4,999847
0,664000	0,643616	4,999847
0,665000	0,586548	4,999847
0,666000	0,653687	4,999847
0,667000	0,614471	4,999847
0,668000	0,647583	4,999847
0,669000	0,631866	3,984833
0,670000	0,637665	3,648224
0,671000	0,646515	3,044128
0,672000	0,628662	4,173126
0,673000	0,659180	4,999847
0,674000	0,619812	4,999847
0,675000	0,671844	4,999847
0,676000	0,612335	4,999847
0,677000	0,683441	4,999847
0,678000	0,605927	4,999847
0,679000	0,687866	3,336182
0,680000	0,616455	4,490662
0,681000	0,673218	3,529663
0,682000	0,634460	4,789734
0,683000	0,659943	4,999847
0,684000	0,650787	4,999847
0,685000	0,648956	4,999847
0,686000	0,666809	4,999847
0,687000	0,637512	4,999847
0,688000	0,679626	4,999847
0,689000	0,627747	4,675598
0,690000	0,692444	2,539368
0,691000	0,619659	4,711914
0,692000	0,704346	2,518311
0,693000	0,612183	4,999847
